# E (eV)   ldos(E)   pdos(E)    pdos(E)    pdos(E)   
  -3.634  0.544E-06  0.181E-06  0.181E-06  0.181E-06
  -3.624  0.868E-06  0.289E-06  0.289E-06  0.289E-06
  -3.614  0.137E-05  0.457E-06  0.457E-06  0.457E-06
  -3.604  0.215E-05  0.715E-06  0.715E-06  0.715E-06
  -3.594  0.332E-05  0.111E-05  0.111E-05  0.111E-05
  -3.584  0.510E-05  0.170E-05  0.170E-05  0.170E-05
  -3.574  0.774E-05  0.258E-05  0.258E-05  0.258E-05
  -3.564  0.116E-04  0.388E-05  0.388E-05  0.388E-05
  -3.554  0.173E-04  0.577E-05  0.577E-05  0.577E-05
  -3.544  0.255E-04  0.849E-05  0.849E-05  0.849E-05
  -3.534  0.372E-04  0.124E-04  0.124E-04  0.124E-04
  -3.524  0.537E-04  0.179E-04  0.179E-04  0.179E-04
  -3.514  0.767E-04  0.256E-04  0.256E-04  0.256E-04
  -3.504  0.109E-03  0.362E-04  0.362E-04  0.362E-04
  -3.494  0.152E-03  0.508E-04  0.508E-04  0.508E-04
  -3.484  0.212E-03  0.705E-04  0.705E-04  0.705E-04
  -3.474  0.291E-03  0.970E-04  0.970E-04  0.970E-04
  -3.464  0.396E-03  0.132E-03  0.132E-03  0.132E-03
  -3.454  0.535E-03  0.178E-03  0.178E-03  0.178E-03
  -3.444  0.715E-03  0.238E-03  0.238E-03  0.238E-03
  -3.434  0.946E-03  0.315E-03  0.315E-03  0.315E-03
  -3.424  0.124E-02  0.414E-03  0.414E-03  0.414E-03
  -3.414  0.161E-02  0.538E-03  0.538E-03  0.538E-03
  -3.404  0.208E-02  0.692E-03  0.692E-03  0.692E-03
  -3.394  0.265E-02  0.883E-03  0.883E-03  0.883E-03
  -3.384  0.335E-02  0.112E-02  0.112E-02  0.112E-02
  -3.374  0.420E-02  0.140E-02  0.140E-02  0.140E-02
  -3.364  0.521E-02  0.174E-02  0.174E-02  0.174E-02
  -3.354  0.641E-02  0.214E-02  0.214E-02  0.214E-02
  -3.344  0.782E-02  0.261E-02  0.261E-02  0.261E-02
  -3.334  0.946E-02  0.315E-02  0.315E-02  0.315E-02
  -3.324  0.114E-01  0.378E-02  0.378E-02  0.378E-02
  -3.314  0.135E-01  0.450E-02  0.450E-02  0.450E-02
  -3.304  0.159E-01  0.531E-02  0.531E-02  0.531E-02
  -3.294  0.187E-01  0.622E-02  0.622E-02  0.622E-02
  -3.284  0.217E-01  0.722E-02  0.722E-02  0.722E-02
  -3.274  0.250E-01  0.832E-02  0.832E-02  0.832E-02
  -3.264  0.285E-01  0.951E-02  0.951E-02  0.951E-02
  -3.254  0.324E-01  0.108E-01  0.108E-01  0.108E-01
  -3.244  0.365E-01  0.122E-01  0.122E-01  0.122E-01
  -3.234  0.408E-01  0.136E-01  0.136E-01  0.136E-01
  -3.224  0.454E-01  0.151E-01  0.151E-01  0.151E-01
  -3.214  0.501E-01  0.167E-01  0.167E-01  0.167E-01
  -3.204  0.550E-01  0.183E-01  0.183E-01  0.183E-01
  -3.194  0.599E-01  0.200E-01  0.200E-01  0.200E-01
  -3.184  0.650E-01  0.217E-01  0.217E-01  0.217E-01
  -3.174  0.700E-01  0.233E-01  0.233E-01  0.233E-01
  -3.164  0.750E-01  0.250E-01  0.250E-01  0.250E-01
  -3.154  0.800E-01  0.267E-01  0.267E-01  0.267E-01
  -3.144  0.849E-01  0.283E-01  0.283E-01  0.283E-01
  -3.134  0.896E-01  0.299E-01  0.299E-01  0.299E-01
  -3.124  0.942E-01  0.314E-01  0.314E-01  0.314E-01
  -3.114  0.987E-01  0.329E-01  0.329E-01  0.329E-01
  -3.104  0.103E+00  0.343E-01  0.343E-01  0.343E-01
  -3.094  0.107E+00  0.356E-01  0.356E-01  0.356E-01
  -3.084  0.111E+00  0.369E-01  0.369E-01  0.369E-01
  -3.074  0.114E+00  0.381E-01  0.381E-01  0.381E-01
  -3.064  0.118E+00  0.393E-01  0.393E-01  0.393E-01
  -3.054  0.121E+00  0.403E-01  0.403E-01  0.403E-01
  -3.044  0.124E+00  0.413E-01  0.413E-01  0.413E-01
  -3.034  0.127E+00  0.422E-01  0.422E-01  0.422E-01
  -3.024  0.129E+00  0.431E-01  0.431E-01  0.431E-01
  -3.014  0.132E+00  0.438E-01  0.438E-01  0.438E-01
  -3.004  0.134E+00  0.446E-01  0.446E-01  0.446E-01
  -2.994  0.136E+00  0.452E-01  0.452E-01  0.452E-01
  -2.984  0.138E+00  0.459E-01  0.459E-01  0.459E-01
  -2.974  0.139E+00  0.464E-01  0.464E-01  0.464E-01
  -2.964  0.141E+00  0.469E-01  0.469E-01  0.469E-01
  -2.954  0.142E+00  0.474E-01  0.474E-01  0.474E-01
  -2.944  0.144E+00  0.479E-01  0.479E-01  0.479E-01
  -2.934  0.145E+00  0.483E-01  0.483E-01  0.483E-01
  -2.924  0.146E+00  0.487E-01  0.487E-01  0.487E-01
  -2.914  0.147E+00  0.491E-01  0.491E-01  0.491E-01
  -2.904  0.148E+00  0.494E-01  0.494E-01  0.494E-01
  -2.894  0.149E+00  0.497E-01  0.497E-01  0.497E-01
  -2.884  0.150E+00  0.500E-01  0.500E-01  0.500E-01
  -2.874  0.151E+00  0.503E-01  0.503E-01  0.503E-01
  -2.864  0.152E+00  0.506E-01  0.506E-01  0.506E-01
  -2.854  0.153E+00  0.508E-01  0.508E-01  0.508E-01
  -2.844  0.153E+00  0.511E-01  0.511E-01  0.511E-01
  -2.834  0.154E+00  0.512E-01  0.512E-01  0.512E-01
  -2.824  0.154E+00  0.514E-01  0.514E-01  0.514E-01
  -2.814  0.155E+00  0.515E-01  0.515E-01  0.515E-01
  -2.804  0.155E+00  0.517E-01  0.517E-01  0.517E-01
  -2.794  0.155E+00  0.518E-01  0.518E-01  0.518E-01
  -2.784  0.156E+00  0.519E-01  0.519E-01  0.519E-01
  -2.774  0.156E+00  0.519E-01  0.519E-01  0.519E-01
  -2.764  0.156E+00  0.520E-01  0.520E-01  0.520E-01
  -2.754  0.156E+00  0.521E-01  0.521E-01  0.521E-01
  -2.744  0.156E+00  0.522E-01  0.522E-01  0.522E-01
  -2.734  0.157E+00  0.523E-01  0.523E-01  0.523E-01
  -2.724  0.157E+00  0.524E-01  0.524E-01  0.524E-01
  -2.714  0.157E+00  0.525E-01  0.525E-01  0.525E-01
  -2.704  0.158E+00  0.526E-01  0.526E-01  0.526E-01
  -2.694  0.158E+00  0.527E-01  0.527E-01  0.527E-01
  -2.684  0.159E+00  0.529E-01  0.529E-01  0.529E-01
  -2.674  0.159E+00  0.530E-01  0.530E-01  0.530E-01
  -2.664  0.159E+00  0.531E-01  0.531E-01  0.531E-01
  -2.654  0.160E+00  0.532E-01  0.532E-01  0.532E-01
  -2.644  0.160E+00  0.533E-01  0.533E-01  0.533E-01
  -2.634  0.160E+00  0.533E-01  0.533E-01  0.533E-01
  -2.624  0.160E+00  0.533E-01  0.533E-01  0.533E-01
  -2.614  0.160E+00  0.533E-01  0.533E-01  0.533E-01
  -2.604  0.160E+00  0.532E-01  0.532E-01  0.532E-01
  -2.594  0.159E+00  0.531E-01  0.531E-01  0.531E-01
  -2.584  0.159E+00  0.530E-01  0.530E-01  0.530E-01
  -2.574  0.158E+00  0.528E-01  0.528E-01  0.528E-01
  -2.564  0.158E+00  0.527E-01  0.527E-01  0.527E-01
  -2.554  0.158E+00  0.525E-01  0.525E-01  0.525E-01
  -2.544  0.157E+00  0.524E-01  0.524E-01  0.524E-01
  -2.534  0.157E+00  0.523E-01  0.523E-01  0.523E-01
  -2.524  0.157E+00  0.522E-01  0.522E-01  0.522E-01
  -2.514  0.157E+00  0.522E-01  0.522E-01  0.522E-01
  -2.504  0.157E+00  0.523E-01  0.523E-01  0.523E-01
  -2.494  0.157E+00  0.523E-01  0.523E-01  0.523E-01
  -2.484  0.157E+00  0.525E-01  0.525E-01  0.525E-01
  -2.474  0.158E+00  0.526E-01  0.526E-01  0.526E-01
  -2.464  0.158E+00  0.528E-01  0.528E-01  0.528E-01
  -2.454  0.159E+00  0.530E-01  0.530E-01  0.530E-01
  -2.444  0.160E+00  0.532E-01  0.532E-01  0.532E-01
  -2.434  0.160E+00  0.534E-01  0.534E-01  0.534E-01
  -2.424  0.160E+00  0.535E-01  0.535E-01  0.535E-01
  -2.414  0.161E+00  0.536E-01  0.536E-01  0.536E-01
  -2.404  0.161E+00  0.536E-01  0.536E-01  0.536E-01
  -2.394  0.161E+00  0.535E-01  0.535E-01  0.535E-01
  -2.384  0.160E+00  0.534E-01  0.534E-01  0.534E-01
  -2.374  0.160E+00  0.532E-01  0.532E-01  0.532E-01
  -2.364  0.159E+00  0.529E-01  0.529E-01  0.529E-01
  -2.354  0.158E+00  0.526E-01  0.526E-01  0.526E-01
  -2.344  0.157E+00  0.523E-01  0.523E-01  0.523E-01
  -2.334  0.156E+00  0.519E-01  0.519E-01  0.519E-01
  -2.324  0.155E+00  0.516E-01  0.516E-01  0.516E-01
  -2.314  0.154E+00  0.512E-01  0.512E-01  0.512E-01
  -2.304  0.153E+00  0.509E-01  0.509E-01  0.509E-01
  -2.294  0.152E+00  0.506E-01  0.506E-01  0.506E-01
  -2.284  0.151E+00  0.504E-01  0.504E-01  0.504E-01
  -2.274  0.151E+00  0.503E-01  0.503E-01  0.503E-01
  -2.264  0.151E+00  0.502E-01  0.502E-01  0.502E-01
  -2.254  0.151E+00  0.502E-01  0.502E-01  0.502E-01
  -2.244  0.151E+00  0.504E-01  0.504E-01  0.504E-01
  -2.234  0.152E+00  0.506E-01  0.506E-01  0.506E-01
  -2.224  0.152E+00  0.508E-01  0.508E-01  0.508E-01
  -2.214  0.153E+00  0.511E-01  0.511E-01  0.511E-01
  -2.204  0.155E+00  0.515E-01  0.515E-01  0.515E-01
  -2.194  0.156E+00  0.519E-01  0.519E-01  0.519E-01
  -2.184  0.157E+00  0.522E-01  0.522E-01  0.522E-01
  -2.174  0.158E+00  0.526E-01  0.526E-01  0.526E-01
  -2.164  0.159E+00  0.529E-01  0.529E-01  0.529E-01
  -2.154  0.159E+00  0.531E-01  0.531E-01  0.531E-01
  -2.144  0.160E+00  0.532E-01  0.532E-01  0.532E-01
  -2.134  0.160E+00  0.532E-01  0.532E-01  0.532E-01
  -2.124  0.159E+00  0.532E-01  0.532E-01  0.532E-01
  -2.114  0.159E+00  0.530E-01  0.530E-01  0.530E-01
  -2.104  0.158E+00  0.526E-01  0.526E-01  0.526E-01
  -2.094  0.157E+00  0.522E-01  0.522E-01  0.522E-01
  -2.084  0.155E+00  0.517E-01  0.517E-01  0.517E-01
  -2.074  0.153E+00  0.511E-01  0.511E-01  0.511E-01
  -2.064  0.151E+00  0.504E-01  0.504E-01  0.504E-01
  -2.054  0.149E+00  0.497E-01  0.497E-01  0.497E-01
  -2.044  0.147E+00  0.489E-01  0.489E-01  0.489E-01
  -2.034  0.145E+00  0.482E-01  0.482E-01  0.482E-01
  -2.024  0.143E+00  0.476E-01  0.476E-01  0.476E-01
  -2.014  0.141E+00  0.471E-01  0.471E-01  0.471E-01
  -2.004  0.140E+00  0.466E-01  0.466E-01  0.466E-01
  -1.994  0.139E+00  0.464E-01  0.464E-01  0.464E-01
  -1.984  0.139E+00  0.462E-01  0.462E-01  0.462E-01
  -1.974  0.139E+00  0.463E-01  0.463E-01  0.463E-01
  -1.964  0.140E+00  0.465E-01  0.465E-01  0.465E-01
  -1.954  0.141E+00  0.470E-01  0.470E-01  0.470E-01
  -1.944  0.143E+00  0.476E-01  0.476E-01  0.476E-01
  -1.934  0.145E+00  0.483E-01  0.483E-01  0.483E-01
  -1.924  0.147E+00  0.491E-01  0.491E-01  0.491E-01
  -1.914  0.150E+00  0.500E-01  0.500E-01  0.500E-01
  -1.904  0.153E+00  0.509E-01  0.509E-01  0.509E-01
  -1.894  0.155E+00  0.518E-01  0.518E-01  0.518E-01
  -1.884  0.158E+00  0.526E-01  0.526E-01  0.526E-01
  -1.874  0.160E+00  0.533E-01  0.533E-01  0.533E-01
  -1.864  0.161E+00  0.538E-01  0.538E-01  0.538E-01
  -1.854  0.162E+00  0.541E-01  0.541E-01  0.541E-01
  -1.844  0.162E+00  0.542E-01  0.542E-01  0.542E-01
  -1.834  0.162E+00  0.540E-01  0.540E-01  0.540E-01
  -1.824  0.161E+00  0.535E-01  0.535E-01  0.535E-01
  -1.814  0.158E+00  0.528E-01  0.528E-01  0.528E-01
  -1.804  0.156E+00  0.519E-01  0.519E-01  0.519E-01
  -1.794  0.152E+00  0.507E-01  0.507E-01  0.507E-01
  -1.784  0.148E+00  0.494E-01  0.494E-01  0.494E-01
  -1.774  0.144E+00  0.481E-01  0.481E-01  0.481E-01
  -1.764  0.140E+00  0.467E-01  0.467E-01  0.467E-01
  -1.754  0.136E+00  0.453E-01  0.453E-01  0.453E-01
  -1.744  0.132E+00  0.440E-01  0.440E-01  0.440E-01
  -1.734  0.129E+00  0.429E-01  0.429E-01  0.429E-01
  -1.724  0.126E+00  0.420E-01  0.420E-01  0.420E-01
  -1.714  0.124E+00  0.413E-01  0.413E-01  0.413E-01
  -1.704  0.123E+00  0.409E-01  0.409E-01  0.409E-01
  -1.694  0.123E+00  0.409E-01  0.409E-01  0.409E-01
  -1.684  0.123E+00  0.411E-01  0.411E-01  0.411E-01
  -1.674  0.125E+00  0.417E-01  0.417E-01  0.417E-01
  -1.664  0.128E+00  0.425E-01  0.425E-01  0.425E-01
  -1.654  0.131E+00  0.436E-01  0.436E-01  0.436E-01
  -1.644  0.135E+00  0.449E-01  0.449E-01  0.449E-01
  -1.634  0.139E+00  0.464E-01  0.464E-01  0.464E-01
  -1.624  0.144E+00  0.479E-01  0.479E-01  0.479E-01
  -1.614  0.148E+00  0.494E-01  0.494E-01  0.494E-01
  -1.604  0.152E+00  0.508E-01  0.508E-01  0.508E-01
  -1.594  0.156E+00  0.521E-01  0.521E-01  0.521E-01
  -1.584  0.159E+00  0.531E-01  0.531E-01  0.531E-01
  -1.574  0.162E+00  0.539E-01  0.539E-01  0.539E-01
  -1.564  0.163E+00  0.544E-01  0.544E-01  0.544E-01
  -1.554  0.164E+00  0.546E-01  0.546E-01  0.546E-01
  -1.544  0.163E+00  0.544E-01  0.544E-01  0.544E-01
  -1.534  0.162E+00  0.539E-01  0.539E-01  0.539E-01
  -1.524  0.159E+00  0.530E-01  0.530E-01  0.530E-01
  -1.514  0.156E+00  0.519E-01  0.519E-01  0.519E-01
  -1.504  0.152E+00  0.505E-01  0.505E-01  0.505E-01
  -1.494  0.147E+00  0.490E-01  0.490E-01  0.490E-01
  -1.484  0.142E+00  0.473E-01  0.473E-01  0.473E-01
  -1.474  0.137E+00  0.456E-01  0.456E-01  0.456E-01
  -1.464  0.132E+00  0.440E-01  0.440E-01  0.440E-01
  -1.454  0.127E+00  0.424E-01  0.424E-01  0.424E-01
  -1.444  0.123E+00  0.411E-01  0.411E-01  0.411E-01
  -1.434  0.120E+00  0.399E-01  0.399E-01  0.399E-01
  -1.424  0.117E+00  0.391E-01  0.391E-01  0.391E-01
  -1.414  0.116E+00  0.385E-01  0.385E-01  0.385E-01
  -1.404  0.115E+00  0.383E-01  0.383E-01  0.383E-01
  -1.394  0.115E+00  0.383E-01  0.383E-01  0.383E-01
  -1.384  0.116E+00  0.387E-01  0.387E-01  0.387E-01
  -1.374  0.118E+00  0.393E-01  0.393E-01  0.393E-01
  -1.364  0.121E+00  0.402E-01  0.402E-01  0.402E-01
  -1.354  0.124E+00  0.412E-01  0.412E-01  0.412E-01
  -1.344  0.127E+00  0.424E-01  0.424E-01  0.424E-01
  -1.334  0.131E+00  0.436E-01  0.436E-01  0.436E-01
  -1.324  0.135E+00  0.449E-01  0.449E-01  0.449E-01
  -1.314  0.138E+00  0.461E-01  0.461E-01  0.461E-01
  -1.304  0.142E+00  0.472E-01  0.472E-01  0.472E-01
  -1.294  0.145E+00  0.482E-01  0.482E-01  0.482E-01
  -1.284  0.147E+00  0.490E-01  0.490E-01  0.490E-01
  -1.274  0.149E+00  0.495E-01  0.495E-01  0.495E-01
  -1.264  0.150E+00  0.499E-01  0.499E-01  0.499E-01
  -1.254  0.150E+00  0.500E-01  0.500E-01  0.500E-01
  -1.244  0.150E+00  0.499E-01  0.499E-01  0.499E-01
  -1.234  0.149E+00  0.496E-01  0.496E-01  0.496E-01
  -1.224  0.147E+00  0.490E-01  0.490E-01  0.490E-01
  -1.214  0.145E+00  0.484E-01  0.484E-01  0.484E-01
  -1.204  0.143E+00  0.475E-01  0.475E-01  0.475E-01
  -1.194  0.140E+00  0.467E-01  0.467E-01  0.467E-01
  -1.184  0.137E+00  0.457E-01  0.457E-01  0.457E-01
  -1.174  0.134E+00  0.448E-01  0.448E-01  0.448E-01
  -1.164  0.132E+00  0.439E-01  0.439E-01  0.439E-01
  -1.154  0.129E+00  0.431E-01  0.431E-01  0.431E-01
  -1.144  0.127E+00  0.424E-01  0.424E-01  0.424E-01
  -1.134  0.126E+00  0.419E-01  0.419E-01  0.419E-01
  -1.124  0.125E+00  0.415E-01  0.415E-01  0.415E-01
  -1.114  0.124E+00  0.413E-01  0.413E-01  0.413E-01
  -1.104  0.124E+00  0.413E-01  0.413E-01  0.413E-01
  -1.094  0.124E+00  0.414E-01  0.414E-01  0.414E-01
  -1.084  0.125E+00  0.417E-01  0.417E-01  0.417E-01
  -1.074  0.126E+00  0.421E-01  0.421E-01  0.421E-01
  -1.064  0.128E+00  0.425E-01  0.425E-01  0.425E-01
  -1.054  0.129E+00  0.430E-01  0.430E-01  0.430E-01
  -1.044  0.130E+00  0.435E-01  0.435E-01  0.435E-01
  -1.034  0.132E+00  0.439E-01  0.439E-01  0.439E-01
  -1.024  0.133E+00  0.442E-01  0.442E-01  0.442E-01
  -1.014  0.133E+00  0.444E-01  0.444E-01  0.444E-01
  -1.004  0.133E+00  0.444E-01  0.444E-01  0.444E-01
  -0.994  0.133E+00  0.443E-01  0.443E-01  0.443E-01
  -0.984  0.132E+00  0.440E-01  0.440E-01  0.440E-01
  -0.974  0.131E+00  0.435E-01  0.435E-01  0.435E-01
  -0.964  0.129E+00  0.429E-01  0.429E-01  0.429E-01
  -0.954  0.126E+00  0.421E-01  0.421E-01  0.421E-01
  -0.944  0.124E+00  0.413E-01  0.413E-01  0.413E-01
  -0.934  0.121E+00  0.404E-01  0.404E-01  0.404E-01
  -0.924  0.119E+00  0.396E-01  0.396E-01  0.396E-01
  -0.914  0.116E+00  0.388E-01  0.388E-01  0.388E-01
  -0.904  0.114E+00  0.381E-01  0.381E-01  0.381E-01
  -0.894  0.113E+00  0.375E-01  0.375E-01  0.375E-01
  -0.884  0.112E+00  0.372E-01  0.372E-01  0.372E-01
  -0.874  0.111E+00  0.370E-01  0.370E-01  0.370E-01
  -0.864  0.111E+00  0.371E-01  0.371E-01  0.371E-01
  -0.854  0.112E+00  0.375E-01  0.375E-01  0.375E-01
  -0.844  0.114E+00  0.380E-01  0.380E-01  0.380E-01
  -0.834  0.116E+00  0.388E-01  0.388E-01  0.388E-01
  -0.824  0.120E+00  0.398E-01  0.398E-01  0.398E-01
  -0.814  0.123E+00  0.410E-01  0.410E-01  0.410E-01
  -0.804  0.127E+00  0.423E-01  0.423E-01  0.423E-01
  -0.794  0.131E+00  0.437E-01  0.437E-01  0.437E-01
  -0.784  0.135E+00  0.451E-01  0.451E-01  0.451E-01
  -0.774  0.140E+00  0.465E-01  0.465E-01  0.465E-01
  -0.764  0.144E+00  0.479E-01  0.479E-01  0.479E-01
  -0.754  0.147E+00  0.491E-01  0.491E-01  0.491E-01
  -0.744  0.150E+00  0.501E-01  0.501E-01  0.501E-01
  -0.734  0.153E+00  0.509E-01  0.509E-01  0.509E-01
  -0.724  0.154E+00  0.514E-01  0.514E-01  0.514E-01
  -0.714  0.155E+00  0.516E-01  0.516E-01  0.516E-01
  -0.704  0.154E+00  0.515E-01  0.515E-01  0.515E-01
  -0.694  0.153E+00  0.510E-01  0.510E-01  0.510E-01
  -0.684  0.150E+00  0.501E-01  0.501E-01  0.501E-01
  -0.674  0.147E+00  0.490E-01  0.490E-01  0.490E-01
  -0.664  0.142E+00  0.475E-01  0.475E-01  0.475E-01
  -0.654  0.137E+00  0.457E-01  0.457E-01  0.457E-01
  -0.644  0.131E+00  0.437E-01  0.437E-01  0.437E-01
  -0.634  0.124E+00  0.415E-01  0.415E-01  0.415E-01
  -0.624  0.117E+00  0.391E-01  0.391E-01  0.391E-01
  -0.614  0.110E+00  0.367E-01  0.367E-01  0.367E-01
  -0.604  0.103E+00  0.344E-01  0.344E-01  0.344E-01
  -0.594  0.963E-01  0.321E-01  0.321E-01  0.321E-01
  -0.584  0.900E-01  0.300E-01  0.300E-01  0.300E-01
  -0.574  0.844E-01  0.281E-01  0.281E-01  0.281E-01
  -0.564  0.798E-01  0.266E-01  0.266E-01  0.266E-01
  -0.554  0.762E-01  0.254E-01  0.254E-01  0.254E-01
  -0.544  0.739E-01  0.246E-01  0.246E-01  0.246E-01
  -0.534  0.730E-01  0.243E-01  0.243E-01  0.243E-01
  -0.524  0.735E-01  0.245E-01  0.245E-01  0.245E-01
  -0.514  0.754E-01  0.251E-01  0.251E-01  0.251E-01
  -0.504  0.788E-01  0.263E-01  0.263E-01  0.263E-01
  -0.494  0.836E-01  0.279E-01  0.279E-01  0.279E-01
  -0.484  0.896E-01  0.299E-01  0.299E-01  0.299E-01
  -0.474  0.968E-01  0.323E-01  0.323E-01  0.323E-01
  -0.464  0.105E+00  0.350E-01  0.350E-01  0.350E-01
  -0.454  0.114E+00  0.379E-01  0.379E-01  0.379E-01
  -0.444  0.123E+00  0.410E-01  0.410E-01  0.410E-01
  -0.434  0.132E+00  0.441E-01  0.441E-01  0.441E-01
  -0.424  0.142E+00  0.472E-01  0.472E-01  0.472E-01
  -0.414  0.150E+00  0.501E-01  0.501E-01  0.501E-01
  -0.404  0.158E+00  0.528E-01  0.528E-01  0.528E-01
  -0.394  0.165E+00  0.551E-01  0.551E-01  0.551E-01
  -0.384  0.171E+00  0.570E-01  0.570E-01  0.570E-01
  -0.374  0.175E+00  0.584E-01  0.584E-01  0.584E-01
  -0.364  0.178E+00  0.592E-01  0.592E-01  0.592E-01
  -0.354  0.178E+00  0.594E-01  0.594E-01  0.594E-01
  -0.344  0.177E+00  0.591E-01  0.591E-01  0.591E-01
  -0.334  0.174E+00  0.581E-01  0.581E-01  0.581E-01
  -0.324  0.170E+00  0.566E-01  0.566E-01  0.566E-01
  -0.314  0.164E+00  0.545E-01  0.545E-01  0.545E-01
  -0.304  0.156E+00  0.520E-01  0.520E-01  0.520E-01
  -0.294  0.148E+00  0.492E-01  0.492E-01  0.492E-01
  -0.284  0.138E+00  0.460E-01  0.460E-01  0.460E-01
  -0.274  0.128E+00  0.427E-01  0.427E-01  0.427E-01
  -0.264  0.118E+00  0.392E-01  0.392E-01  0.392E-01
  -0.254  0.107E+00  0.358E-01  0.358E-01  0.358E-01
  -0.244  0.974E-01  0.325E-01  0.325E-01  0.325E-01
  -0.234  0.879E-01  0.293E-01  0.293E-01  0.293E-01
  -0.224  0.793E-01  0.264E-01  0.264E-01  0.264E-01
  -0.214  0.716E-01  0.239E-01  0.239E-01  0.239E-01
  -0.204  0.650E-01  0.217E-01  0.217E-01  0.217E-01
  -0.194  0.598E-01  0.199E-01  0.199E-01  0.199E-01
  -0.184  0.560E-01  0.187E-01  0.187E-01  0.187E-01
  -0.174  0.536E-01  0.179E-01  0.179E-01  0.179E-01
  -0.164  0.528E-01  0.176E-01  0.176E-01  0.176E-01
  -0.154  0.534E-01  0.178E-01  0.178E-01  0.178E-01
  -0.144  0.556E-01  0.185E-01  0.185E-01  0.185E-01
  -0.134  0.592E-01  0.197E-01  0.197E-01  0.197E-01
  -0.124  0.642E-01  0.214E-01  0.214E-01  0.214E-01
  -0.114  0.704E-01  0.235E-01  0.235E-01  0.235E-01
  -0.104  0.778E-01  0.259E-01  0.259E-01  0.259E-01
  -0.094  0.860E-01  0.287E-01  0.287E-01  0.287E-01
  -0.084  0.951E-01  0.317E-01  0.317E-01  0.317E-01
  -0.074  0.105E+00  0.349E-01  0.349E-01  0.349E-01
  -0.064  0.114E+00  0.381E-01  0.381E-01  0.381E-01
  -0.054  0.124E+00  0.414E-01  0.414E-01  0.414E-01
  -0.044  0.134E+00  0.446E-01  0.446E-01  0.446E-01
  -0.034  0.143E+00  0.476E-01  0.476E-01  0.476E-01
  -0.024  0.151E+00  0.504E-01  0.504E-01  0.504E-01
  -0.014  0.158E+00  0.528E-01  0.528E-01  0.528E-01
  -0.004  0.164E+00  0.548E-01  0.548E-01  0.548E-01
   0.006  0.169E+00  0.564E-01  0.564E-01  0.564E-01
   0.016  0.172E+00  0.574E-01  0.574E-01  0.574E-01
   0.026  0.174E+00  0.579E-01  0.579E-01  0.579E-01
   0.036  0.173E+00  0.578E-01  0.578E-01  0.578E-01
   0.046  0.172E+00  0.572E-01  0.572E-01  0.572E-01
   0.056  0.168E+00  0.560E-01  0.560E-01  0.560E-01
   0.066  0.163E+00  0.544E-01  0.544E-01  0.544E-01
   0.076  0.157E+00  0.523E-01  0.523E-01  0.523E-01
   0.086  0.150E+00  0.499E-01  0.499E-01  0.499E-01
   0.096  0.141E+00  0.471E-01  0.471E-01  0.471E-01
   0.106  0.132E+00  0.441E-01  0.441E-01  0.441E-01
   0.116  0.123E+00  0.410E-01  0.410E-01  0.410E-01
   0.126  0.114E+00  0.379E-01  0.379E-01  0.379E-01
   0.136  0.104E+00  0.348E-01  0.348E-01  0.348E-01
   0.146  0.955E-01  0.318E-01  0.318E-01  0.318E-01
   0.156  0.872E-01  0.291E-01  0.291E-01  0.291E-01
   0.166  0.797E-01  0.266E-01  0.266E-01  0.266E-01
   0.176  0.731E-01  0.244E-01  0.244E-01  0.244E-01
   0.186  0.677E-01  0.226E-01  0.226E-01  0.226E-01
   0.196  0.634E-01  0.211E-01  0.211E-01  0.211E-01
   0.206  0.605E-01  0.202E-01  0.202E-01  0.202E-01
   0.216  0.589E-01  0.196E-01  0.196E-01  0.196E-01
   0.226  0.586E-01  0.195E-01  0.195E-01  0.195E-01
   0.236  0.596E-01  0.199E-01  0.199E-01  0.199E-01
   0.246  0.618E-01  0.206E-01  0.206E-01  0.206E-01
   0.256  0.652E-01  0.217E-01  0.217E-01  0.217E-01
   0.266  0.696E-01  0.232E-01  0.232E-01  0.232E-01
   0.276  0.749E-01  0.250E-01  0.250E-01  0.250E-01
   0.286  0.808E-01  0.269E-01  0.269E-01  0.269E-01
   0.296  0.872E-01  0.291E-01  0.291E-01  0.291E-01
   0.306  0.940E-01  0.313E-01  0.313E-01  0.313E-01
   0.316  0.101E+00  0.336E-01  0.336E-01  0.336E-01
   0.326  0.108E+00  0.359E-01  0.359E-01  0.359E-01
   0.336  0.114E+00  0.380E-01  0.380E-01  0.380E-01
   0.346  0.120E+00  0.400E-01  0.400E-01  0.400E-01
   0.356  0.125E+00  0.417E-01  0.417E-01  0.417E-01
   0.366  0.130E+00  0.433E-01  0.433E-01  0.433E-01
   0.376  0.133E+00  0.445E-01  0.445E-01  0.445E-01
   0.386  0.136E+00  0.454E-01  0.454E-01  0.454E-01
   0.396  0.138E+00  0.459E-01  0.459E-01  0.459E-01
   0.406  0.139E+00  0.462E-01  0.462E-01  0.462E-01
   0.416  0.138E+00  0.462E-01  0.462E-01  0.462E-01
   0.426  0.137E+00  0.458E-01  0.458E-01  0.458E-01
   0.436  0.136E+00  0.452E-01  0.452E-01  0.452E-01
   0.446  0.133E+00  0.444E-01  0.444E-01  0.444E-01
   0.456  0.130E+00  0.434E-01  0.434E-01  0.434E-01
   0.466  0.127E+00  0.423E-01  0.423E-01  0.423E-01
   0.476  0.123E+00  0.411E-01  0.411E-01  0.411E-01
   0.486  0.119E+00  0.398E-01  0.398E-01  0.398E-01
   0.496  0.115E+00  0.384E-01  0.384E-01  0.384E-01
   0.506  0.111E+00  0.371E-01  0.371E-01  0.371E-01
   0.516  0.107E+00  0.358E-01  0.358E-01  0.358E-01
   0.526  0.104E+00  0.346E-01  0.346E-01  0.346E-01
   0.536  0.100E+00  0.334E-01  0.334E-01  0.334E-01
   0.546  0.969E-01  0.323E-01  0.323E-01  0.323E-01
   0.556  0.939E-01  0.313E-01  0.313E-01  0.313E-01
   0.566  0.913E-01  0.304E-01  0.304E-01  0.304E-01
   0.576  0.891E-01  0.297E-01  0.297E-01  0.297E-01
   0.586  0.874E-01  0.291E-01  0.291E-01  0.291E-01
   0.596  0.861E-01  0.287E-01  0.287E-01  0.287E-01
   0.606  0.854E-01  0.285E-01  0.285E-01  0.285E-01
   0.616  0.852E-01  0.284E-01  0.284E-01  0.284E-01
   0.626  0.857E-01  0.286E-01  0.286E-01  0.286E-01
   0.636  0.867E-01  0.289E-01  0.289E-01  0.289E-01
   0.646  0.883E-01  0.294E-01  0.294E-01  0.294E-01
   0.656  0.906E-01  0.302E-01  0.302E-01  0.302E-01
   0.666  0.933E-01  0.311E-01  0.311E-01  0.311E-01
   0.676  0.965E-01  0.322E-01  0.322E-01  0.322E-01
   0.686  0.100E+00  0.333E-01  0.333E-01  0.333E-01
   0.696  0.104E+00  0.346E-01  0.346E-01  0.346E-01
   0.706  0.108E+00  0.359E-01  0.359E-01  0.359E-01
   0.716  0.111E+00  0.371E-01  0.371E-01  0.371E-01
   0.726  0.115E+00  0.383E-01  0.383E-01  0.383E-01
   0.736  0.118E+00  0.394E-01  0.394E-01  0.394E-01
   0.746  0.121E+00  0.403E-01  0.403E-01  0.403E-01
   0.756  0.123E+00  0.410E-01  0.410E-01  0.410E-01
   0.766  0.124E+00  0.414E-01  0.414E-01  0.414E-01
   0.776  0.125E+00  0.415E-01  0.415E-01  0.415E-01
   0.786  0.124E+00  0.413E-01  0.413E-01  0.413E-01
   0.796  0.123E+00  0.409E-01  0.409E-01  0.409E-01
   0.806  0.120E+00  0.401E-01  0.401E-01  0.401E-01
   0.816  0.117E+00  0.390E-01  0.390E-01  0.390E-01
   0.826  0.113E+00  0.377E-01  0.377E-01  0.377E-01
   0.836  0.108E+00  0.362E-01  0.362E-01  0.362E-01
   0.846  0.103E+00  0.345E-01  0.345E-01  0.345E-01
   0.856  0.980E-01  0.327E-01  0.327E-01  0.327E-01
   0.866  0.926E-01  0.309E-01  0.309E-01  0.309E-01
   0.876  0.871E-01  0.290E-01  0.290E-01  0.290E-01
   0.886  0.820E-01  0.273E-01  0.273E-01  0.273E-01
   0.896  0.772E-01  0.257E-01  0.257E-01  0.257E-01
   0.906  0.730E-01  0.243E-01  0.243E-01  0.243E-01
   0.916  0.695E-01  0.232E-01  0.232E-01  0.232E-01
   0.926  0.668E-01  0.223E-01  0.223E-01  0.223E-01
   0.936  0.651E-01  0.217E-01  0.217E-01  0.217E-01
   0.946  0.642E-01  0.214E-01  0.214E-01  0.214E-01
   0.956  0.644E-01  0.215E-01  0.215E-01  0.215E-01
   0.966  0.655E-01  0.218E-01  0.218E-01  0.218E-01
   0.976  0.676E-01  0.225E-01  0.225E-01  0.225E-01
   0.986  0.705E-01  0.235E-01  0.235E-01  0.235E-01
   0.996  0.743E-01  0.248E-01  0.248E-01  0.248E-01
   1.006  0.787E-01  0.262E-01  0.262E-01  0.262E-01
   1.016  0.837E-01  0.279E-01  0.279E-01  0.279E-01
   1.026  0.891E-01  0.297E-01  0.297E-01  0.297E-01
   1.036  0.948E-01  0.316E-01  0.316E-01  0.316E-01
   1.046  0.101E+00  0.336E-01  0.336E-01  0.336E-01
   1.056  0.107E+00  0.355E-01  0.355E-01  0.355E-01
   1.066  0.112E+00  0.375E-01  0.375E-01  0.375E-01
   1.076  0.118E+00  0.393E-01  0.393E-01  0.393E-01
   1.086  0.123E+00  0.411E-01  0.411E-01  0.411E-01
   1.096  0.128E+00  0.426E-01  0.426E-01  0.426E-01
   1.106  0.132E+00  0.441E-01  0.441E-01  0.441E-01
   1.116  0.136E+00  0.452E-01  0.452E-01  0.452E-01
   1.126  0.139E+00  0.462E-01  0.462E-01  0.462E-01
   1.136  0.141E+00  0.469E-01  0.469E-01  0.469E-01
   1.146  0.142E+00  0.474E-01  0.474E-01  0.474E-01
   1.156  0.143E+00  0.476E-01  0.476E-01  0.476E-01
   1.166  0.142E+00  0.475E-01  0.475E-01  0.475E-01
   1.176  0.141E+00  0.471E-01  0.471E-01  0.471E-01
   1.186  0.139E+00  0.465E-01  0.465E-01  0.465E-01
   1.196  0.137E+00  0.456E-01  0.456E-01  0.456E-01
   1.206  0.133E+00  0.444E-01  0.444E-01  0.444E-01
   1.216  0.129E+00  0.430E-01  0.430E-01  0.430E-01
   1.226  0.124E+00  0.414E-01  0.414E-01  0.414E-01
   1.236  0.119E+00  0.396E-01  0.396E-01  0.396E-01
   1.246  0.113E+00  0.376E-01  0.376E-01  0.376E-01
   1.256  0.107E+00  0.355E-01  0.355E-01  0.355E-01
   1.266  0.999E-01  0.333E-01  0.333E-01  0.333E-01
   1.276  0.931E-01  0.310E-01  0.310E-01  0.310E-01
   1.286  0.862E-01  0.287E-01  0.287E-01  0.287E-01
   1.296  0.793E-01  0.264E-01  0.264E-01  0.264E-01
   1.306  0.726E-01  0.242E-01  0.242E-01  0.242E-01
   1.316  0.662E-01  0.221E-01  0.221E-01  0.221E-01
   1.326  0.601E-01  0.200E-01  0.200E-01  0.200E-01
   1.336  0.546E-01  0.182E-01  0.182E-01  0.182E-01
   1.346  0.497E-01  0.166E-01  0.166E-01  0.166E-01
   1.356  0.455E-01  0.152E-01  0.152E-01  0.152E-01
   1.366  0.421E-01  0.140E-01  0.140E-01  0.140E-01
   1.376  0.396E-01  0.132E-01  0.132E-01  0.132E-01
   1.386  0.380E-01  0.127E-01  0.127E-01  0.127E-01
   1.396  0.374E-01  0.125E-01  0.125E-01  0.125E-01
   1.406  0.378E-01  0.126E-01  0.126E-01  0.126E-01
   1.416  0.392E-01  0.131E-01  0.131E-01  0.131E-01
   1.426  0.417E-01  0.139E-01  0.139E-01  0.139E-01
   1.436  0.452E-01  0.151E-01  0.151E-01  0.151E-01
   1.446  0.496E-01  0.165E-01  0.165E-01  0.165E-01
   1.456  0.550E-01  0.183E-01  0.183E-01  0.183E-01
   1.466  0.612E-01  0.204E-01  0.204E-01  0.204E-01
   1.476  0.681E-01  0.227E-01  0.227E-01  0.227E-01
   1.486  0.757E-01  0.252E-01  0.252E-01  0.252E-01
   1.496  0.838E-01  0.279E-01  0.279E-01  0.279E-01
   1.506  0.922E-01  0.307E-01  0.307E-01  0.307E-01
   1.516  0.101E+00  0.336E-01  0.336E-01  0.336E-01
   1.526  0.109E+00  0.364E-01  0.364E-01  0.364E-01
   1.536  0.118E+00  0.392E-01  0.392E-01  0.392E-01
   1.546  0.126E+00  0.419E-01  0.419E-01  0.419E-01
   1.556  0.133E+00  0.444E-01  0.444E-01  0.444E-01
   1.566  0.140E+00  0.466E-01  0.466E-01  0.466E-01
   1.576  0.146E+00  0.486E-01  0.486E-01  0.486E-01
   1.586  0.151E+00  0.502E-01  0.502E-01  0.502E-01
   1.596  0.154E+00  0.515E-01  0.515E-01  0.515E-01
   1.606  0.157E+00  0.524E-01  0.524E-01  0.524E-01
   1.616  0.158E+00  0.528E-01  0.528E-01  0.528E-01
   1.626  0.159E+00  0.529E-01  0.529E-01  0.529E-01
   1.636  0.157E+00  0.525E-01  0.525E-01  0.525E-01
   1.646  0.155E+00  0.517E-01  0.517E-01  0.517E-01
   1.656  0.152E+00  0.505E-01  0.505E-01  0.505E-01
   1.666  0.147E+00  0.490E-01  0.490E-01  0.490E-01
   1.676  0.142E+00  0.472E-01  0.472E-01  0.472E-01
   1.686  0.135E+00  0.451E-01  0.451E-01  0.451E-01
   1.696  0.128E+00  0.427E-01  0.427E-01  0.427E-01
   1.706  0.121E+00  0.402E-01  0.402E-01  0.402E-01
   1.716  0.113E+00  0.375E-01  0.375E-01  0.375E-01
   1.726  0.104E+00  0.348E-01  0.348E-01  0.348E-01
   1.736  0.962E-01  0.321E-01  0.321E-01  0.321E-01
   1.746  0.881E-01  0.294E-01  0.294E-01  0.294E-01
   1.756  0.802E-01  0.267E-01  0.267E-01  0.267E-01
   1.766  0.727E-01  0.242E-01  0.242E-01  0.242E-01
   1.776  0.657E-01  0.219E-01  0.219E-01  0.219E-01
   1.786  0.593E-01  0.198E-01  0.198E-01  0.198E-01
   1.796  0.536E-01  0.179E-01  0.179E-01  0.179E-01
   1.806  0.486E-01  0.162E-01  0.162E-01  0.162E-01
   1.816  0.445E-01  0.148E-01  0.148E-01  0.148E-01
   1.826  0.413E-01  0.138E-01  0.138E-01  0.138E-01
   1.836  0.389E-01  0.130E-01  0.130E-01  0.130E-01
   1.846  0.375E-01  0.125E-01  0.125E-01  0.125E-01
   1.856  0.369E-01  0.123E-01  0.123E-01  0.123E-01
   1.866  0.372E-01  0.124E-01  0.124E-01  0.124E-01
   1.876  0.383E-01  0.128E-01  0.128E-01  0.128E-01
   1.886  0.401E-01  0.134E-01  0.134E-01  0.134E-01
   1.896  0.426E-01  0.142E-01  0.142E-01  0.142E-01
   1.906  0.457E-01  0.152E-01  0.152E-01  0.152E-01
   1.916  0.493E-01  0.164E-01  0.164E-01  0.164E-01
   1.926  0.533E-01  0.178E-01  0.178E-01  0.178E-01
   1.936  0.577E-01  0.192E-01  0.192E-01  0.192E-01
   1.946  0.623E-01  0.208E-01  0.208E-01  0.208E-01
   1.956  0.670E-01  0.223E-01  0.223E-01  0.223E-01
   1.966  0.718E-01  0.239E-01  0.239E-01  0.239E-01
   1.976  0.767E-01  0.256E-01  0.256E-01  0.256E-01
   1.986  0.815E-01  0.272E-01  0.272E-01  0.272E-01
   1.996  0.863E-01  0.288E-01  0.288E-01  0.288E-01
   2.006  0.910E-01  0.303E-01  0.303E-01  0.303E-01
   2.016  0.956E-01  0.319E-01  0.319E-01  0.319E-01
   2.026  0.100E+00  0.334E-01  0.334E-01  0.334E-01
   2.036  0.105E+00  0.348E-01  0.348E-01  0.348E-01
   2.046  0.109E+00  0.363E-01  0.363E-01  0.363E-01
   2.056  0.113E+00  0.376E-01  0.376E-01  0.376E-01
   2.066  0.117E+00  0.389E-01  0.389E-01  0.389E-01
   2.076  0.120E+00  0.402E-01  0.402E-01  0.402E-01
   2.086  0.124E+00  0.413E-01  0.413E-01  0.413E-01
   2.096  0.127E+00  0.424E-01  0.424E-01  0.424E-01
   2.106  0.130E+00  0.433E-01  0.433E-01  0.433E-01
   2.116  0.132E+00  0.440E-01  0.440E-01  0.440E-01
   2.126  0.134E+00  0.446E-01  0.446E-01  0.446E-01
   2.136  0.135E+00  0.449E-01  0.449E-01  0.449E-01
   2.146  0.135E+00  0.450E-01  0.450E-01  0.450E-01
   2.156  0.134E+00  0.448E-01  0.448E-01  0.448E-01
   2.166  0.133E+00  0.443E-01  0.443E-01  0.443E-01
   2.176  0.131E+00  0.435E-01  0.435E-01  0.435E-01
   2.186  0.127E+00  0.425E-01  0.425E-01  0.425E-01
   2.196  0.123E+00  0.412E-01  0.412E-01  0.412E-01
   2.206  0.119E+00  0.396E-01  0.396E-01  0.396E-01
   2.216  0.114E+00  0.378E-01  0.378E-01  0.378E-01
   2.226  0.108E+00  0.359E-01  0.359E-01  0.359E-01
   2.236  0.102E+00  0.339E-01  0.339E-01  0.339E-01
   2.246  0.954E-01  0.318E-01  0.318E-01  0.318E-01
   2.256  0.892E-01  0.297E-01  0.297E-01  0.297E-01
   2.266  0.832E-01  0.277E-01  0.277E-01  0.277E-01
   2.276  0.775E-01  0.258E-01  0.258E-01  0.258E-01
   2.286  0.723E-01  0.241E-01  0.241E-01  0.241E-01
   2.296  0.677E-01  0.226E-01  0.226E-01  0.226E-01
   2.306  0.639E-01  0.213E-01  0.213E-01  0.213E-01
   2.316  0.608E-01  0.203E-01  0.203E-01  0.203E-01
   2.326  0.586E-01  0.195E-01  0.195E-01  0.195E-01
   2.336  0.572E-01  0.191E-01  0.191E-01  0.191E-01
   2.346  0.565E-01  0.188E-01  0.188E-01  0.188E-01
   2.356  0.566E-01  0.189E-01  0.189E-01  0.189E-01
   2.366  0.573E-01  0.191E-01  0.191E-01  0.191E-01
   2.376  0.586E-01  0.195E-01  0.195E-01  0.195E-01
   2.386  0.602E-01  0.201E-01  0.201E-01  0.201E-01
   2.396  0.622E-01  0.207E-01  0.207E-01  0.207E-01
   2.406  0.644E-01  0.215E-01  0.215E-01  0.215E-01
   2.416  0.666E-01  0.222E-01  0.222E-01  0.222E-01
   2.426  0.687E-01  0.229E-01  0.229E-01  0.229E-01
   2.436  0.708E-01  0.236E-01  0.236E-01  0.236E-01
   2.446  0.726E-01  0.242E-01  0.242E-01  0.242E-01
   2.456  0.742E-01  0.247E-01  0.247E-01  0.247E-01
   2.466  0.756E-01  0.252E-01  0.252E-01  0.252E-01
   2.476  0.767E-01  0.256E-01  0.256E-01  0.256E-01
   2.486  0.776E-01  0.259E-01  0.259E-01  0.259E-01
   2.496  0.783E-01  0.261E-01  0.261E-01  0.261E-01
   2.506  0.789E-01  0.263E-01  0.263E-01  0.263E-01
   2.516  0.794E-01  0.265E-01  0.265E-01  0.265E-01
   2.526  0.799E-01  0.266E-01  0.266E-01  0.266E-01
   2.536  0.804E-01  0.268E-01  0.268E-01  0.268E-01
   2.546  0.810E-01  0.270E-01  0.270E-01  0.270E-01
   2.556  0.817E-01  0.272E-01  0.272E-01  0.272E-01
   2.566  0.826E-01  0.275E-01  0.275E-01  0.275E-01
   2.576  0.836E-01  0.279E-01  0.279E-01  0.279E-01
   2.586  0.848E-01  0.283E-01  0.283E-01  0.283E-01
   2.596  0.861E-01  0.287E-01  0.287E-01  0.287E-01
   2.606  0.874E-01  0.291E-01  0.291E-01  0.291E-01
   2.616  0.889E-01  0.296E-01  0.296E-01  0.296E-01
   2.626  0.903E-01  0.301E-01  0.301E-01  0.301E-01
   2.636  0.917E-01  0.306E-01  0.306E-01  0.306E-01
   2.646  0.931E-01  0.310E-01  0.310E-01  0.310E-01
   2.656  0.943E-01  0.314E-01  0.314E-01  0.314E-01
   2.666  0.955E-01  0.318E-01  0.318E-01  0.318E-01
   2.676  0.965E-01  0.322E-01  0.322E-01  0.322E-01
   2.686  0.974E-01  0.325E-01  0.325E-01  0.325E-01
   2.696  0.981E-01  0.327E-01  0.327E-01  0.327E-01
   2.706  0.988E-01  0.329E-01  0.329E-01  0.329E-01
   2.716  0.993E-01  0.331E-01  0.331E-01  0.331E-01
   2.726  0.997E-01  0.332E-01  0.332E-01  0.332E-01
   2.736  0.100E+00  0.334E-01  0.334E-01  0.334E-01
   2.746  0.100E+00  0.335E-01  0.335E-01  0.335E-01
   2.756  0.101E+00  0.336E-01  0.336E-01  0.336E-01
   2.766  0.101E+00  0.336E-01  0.336E-01  0.336E-01
   2.776  0.101E+00  0.337E-01  0.337E-01  0.337E-01
   2.786  0.101E+00  0.337E-01  0.337E-01  0.337E-01
   2.796  0.101E+00  0.338E-01  0.338E-01  0.338E-01
   2.806  0.101E+00  0.338E-01  0.338E-01  0.338E-01
   2.816  0.101E+00  0.338E-01  0.338E-01  0.338E-01
   2.826  0.101E+00  0.337E-01  0.337E-01  0.337E-01
   2.836  0.101E+00  0.336E-01  0.336E-01  0.336E-01
   2.846  0.100E+00  0.335E-01  0.335E-01  0.335E-01
   2.856  0.999E-01  0.333E-01  0.333E-01  0.333E-01
   2.866  0.990E-01  0.330E-01  0.330E-01  0.330E-01
   2.876  0.979E-01  0.326E-01  0.326E-01  0.326E-01
   2.886  0.966E-01  0.322E-01  0.322E-01  0.322E-01
   2.896  0.950E-01  0.317E-01  0.317E-01  0.317E-01
   2.906  0.931E-01  0.310E-01  0.310E-01  0.310E-01
   2.916  0.910E-01  0.303E-01  0.303E-01  0.303E-01
   2.926  0.887E-01  0.296E-01  0.296E-01  0.296E-01
   2.936  0.862E-01  0.287E-01  0.287E-01  0.287E-01
   2.946  0.835E-01  0.278E-01  0.278E-01  0.278E-01
   2.956  0.808E-01  0.269E-01  0.269E-01  0.269E-01
   2.966  0.782E-01  0.261E-01  0.261E-01  0.261E-01
   2.976  0.756E-01  0.252E-01  0.252E-01  0.252E-01
   2.986  0.732E-01  0.244E-01  0.244E-01  0.244E-01
   2.996  0.711E-01  0.237E-01  0.237E-01  0.237E-01
   3.006  0.693E-01  0.231E-01  0.231E-01  0.231E-01
   3.016  0.680E-01  0.227E-01  0.227E-01  0.227E-01
   3.026  0.671E-01  0.224E-01  0.224E-01  0.224E-01
   3.036  0.667E-01  0.222E-01  0.222E-01  0.222E-01
   3.046  0.668E-01  0.223E-01  0.223E-01  0.223E-01
   3.056  0.673E-01  0.224E-01  0.224E-01  0.224E-01
   3.066  0.684E-01  0.228E-01  0.228E-01  0.228E-01
   3.076  0.699E-01  0.233E-01  0.233E-01  0.233E-01
   3.086  0.718E-01  0.239E-01  0.239E-01  0.239E-01
   3.096  0.740E-01  0.247E-01  0.247E-01  0.247E-01
   3.106  0.764E-01  0.255E-01  0.255E-01  0.255E-01
   3.116  0.791E-01  0.264E-01  0.264E-01  0.264E-01
   3.126  0.819E-01  0.273E-01  0.273E-01  0.273E-01
   3.136  0.848E-01  0.283E-01  0.283E-01  0.283E-01
   3.146  0.879E-01  0.293E-01  0.293E-01  0.293E-01
   3.156  0.910E-01  0.303E-01  0.303E-01  0.303E-01
   3.166  0.941E-01  0.314E-01  0.314E-01  0.314E-01
   3.176  0.974E-01  0.325E-01  0.325E-01  0.325E-01
   3.186  0.101E+00  0.336E-01  0.336E-01  0.336E-01
   3.196  0.104E+00  0.347E-01  0.347E-01  0.347E-01
   3.206  0.108E+00  0.360E-01  0.360E-01  0.360E-01
   3.216  0.112E+00  0.372E-01  0.372E-01  0.372E-01
   3.226  0.116E+00  0.386E-01  0.386E-01  0.386E-01
   3.236  0.120E+00  0.400E-01  0.400E-01  0.400E-01
   3.246  0.124E+00  0.414E-01  0.414E-01  0.414E-01
   3.256  0.129E+00  0.429E-01  0.429E-01  0.429E-01
   3.266  0.133E+00  0.443E-01  0.443E-01  0.443E-01
   3.276  0.137E+00  0.457E-01  0.457E-01  0.457E-01
   3.286  0.141E+00  0.471E-01  0.471E-01  0.471E-01
   3.296  0.145E+00  0.484E-01  0.484E-01  0.484E-01
   3.306  0.148E+00  0.495E-01  0.495E-01  0.495E-01
   3.316  0.151E+00  0.504E-01  0.504E-01  0.504E-01
   3.326  0.153E+00  0.511E-01  0.511E-01  0.511E-01
   3.336  0.155E+00  0.516E-01  0.516E-01  0.516E-01
   3.346  0.155E+00  0.518E-01  0.518E-01  0.518E-01
   3.356  0.155E+00  0.517E-01  0.517E-01  0.517E-01
   3.366  0.154E+00  0.513E-01  0.513E-01  0.513E-01
   3.376  0.152E+00  0.506E-01  0.506E-01  0.506E-01
   3.386  0.149E+00  0.497E-01  0.497E-01  0.497E-01
   3.396  0.146E+00  0.485E-01  0.485E-01  0.485E-01
   3.406  0.141E+00  0.471E-01  0.471E-01  0.471E-01
   3.416  0.137E+00  0.455E-01  0.455E-01  0.455E-01
   3.426  0.132E+00  0.438E-01  0.438E-01  0.438E-01
   3.436  0.126E+00  0.421E-01  0.421E-01  0.421E-01
   3.446  0.121E+00  0.403E-01  0.403E-01  0.403E-01
   3.456  0.115E+00  0.385E-01  0.385E-01  0.385E-01
   3.466  0.110E+00  0.367E-01  0.367E-01  0.367E-01
   3.476  0.105E+00  0.351E-01  0.351E-01  0.351E-01
   3.486  0.101E+00  0.336E-01  0.336E-01  0.336E-01
   3.496  0.968E-01  0.323E-01  0.323E-01  0.323E-01
   3.506  0.934E-01  0.311E-01  0.311E-01  0.311E-01
   3.516  0.905E-01  0.302E-01  0.302E-01  0.302E-01
   3.526  0.881E-01  0.294E-01  0.294E-01  0.294E-01
   3.536  0.864E-01  0.288E-01  0.288E-01  0.288E-01
   3.546  0.852E-01  0.284E-01  0.284E-01  0.284E-01
   3.556  0.844E-01  0.281E-01  0.281E-01  0.281E-01
   3.566  0.841E-01  0.280E-01  0.280E-01  0.280E-01
   3.576  0.842E-01  0.281E-01  0.281E-01  0.281E-01
   3.586  0.845E-01  0.282E-01  0.282E-01  0.282E-01
   3.596  0.850E-01  0.283E-01  0.283E-01  0.283E-01
   3.606  0.855E-01  0.285E-01  0.285E-01  0.285E-01
   3.616  0.860E-01  0.287E-01  0.287E-01  0.287E-01
   3.626  0.864E-01  0.288E-01  0.288E-01  0.288E-01
   3.636  0.867E-01  0.289E-01  0.289E-01  0.289E-01
   3.646  0.868E-01  0.289E-01  0.289E-01  0.289E-01
   3.656  0.865E-01  0.288E-01  0.288E-01  0.288E-01
   3.666  0.861E-01  0.287E-01  0.287E-01  0.287E-01
   3.676  0.853E-01  0.284E-01  0.284E-01  0.284E-01
   3.686  0.843E-01  0.281E-01  0.281E-01  0.281E-01
   3.696  0.830E-01  0.277E-01  0.277E-01  0.277E-01
   3.706  0.817E-01  0.272E-01  0.272E-01  0.272E-01
   3.716  0.802E-01  0.267E-01  0.267E-01  0.267E-01
   3.726  0.787E-01  0.262E-01  0.262E-01  0.262E-01
   3.736  0.773E-01  0.258E-01  0.258E-01  0.258E-01
   3.746  0.760E-01  0.253E-01  0.253E-01  0.253E-01
   3.756  0.749E-01  0.250E-01  0.250E-01  0.250E-01
   3.766  0.741E-01  0.247E-01  0.247E-01  0.247E-01
   3.776  0.735E-01  0.245E-01  0.245E-01  0.245E-01
   3.786  0.732E-01  0.244E-01  0.244E-01  0.244E-01
   3.796  0.732E-01  0.244E-01  0.244E-01  0.244E-01
   3.806  0.734E-01  0.245E-01  0.245E-01  0.245E-01
   3.816  0.738E-01  0.246E-01  0.246E-01  0.246E-01
   3.826  0.744E-01  0.248E-01  0.248E-01  0.248E-01
   3.836  0.749E-01  0.250E-01  0.250E-01  0.250E-01
   3.846  0.754E-01  0.251E-01  0.251E-01  0.251E-01
   3.856  0.758E-01  0.253E-01  0.253E-01  0.253E-01
   3.866  0.760E-01  0.253E-01  0.253E-01  0.253E-01
   3.876  0.760E-01  0.253E-01  0.253E-01  0.253E-01
   3.886  0.756E-01  0.252E-01  0.252E-01  0.252E-01
   3.896  0.749E-01  0.250E-01  0.250E-01  0.250E-01
   3.906  0.740E-01  0.247E-01  0.247E-01  0.247E-01
   3.916  0.727E-01  0.242E-01  0.242E-01  0.242E-01
   3.926  0.713E-01  0.238E-01  0.238E-01  0.238E-01
   3.936  0.697E-01  0.232E-01  0.232E-01  0.232E-01
   3.946  0.680E-01  0.227E-01  0.227E-01  0.227E-01
   3.956  0.664E-01  0.221E-01  0.221E-01  0.221E-01
   3.966  0.649E-01  0.216E-01  0.216E-01  0.216E-01
   3.976  0.636E-01  0.212E-01  0.212E-01  0.212E-01
   3.986  0.627E-01  0.209E-01  0.209E-01  0.209E-01
   3.996  0.622E-01  0.207E-01  0.207E-01  0.207E-01
   4.006  0.622E-01  0.207E-01  0.207E-01  0.207E-01
   4.016  0.627E-01  0.209E-01  0.209E-01  0.209E-01
   4.026  0.637E-01  0.212E-01  0.212E-01  0.212E-01
   4.036  0.653E-01  0.218E-01  0.218E-01  0.218E-01
   4.046  0.675E-01  0.225E-01  0.225E-01  0.225E-01
   4.056  0.701E-01  0.234E-01  0.234E-01  0.234E-01
   4.066  0.731E-01  0.244E-01  0.244E-01  0.244E-01
   4.076  0.764E-01  0.255E-01  0.255E-01  0.255E-01
   4.086  0.800E-01  0.267E-01  0.267E-01  0.267E-01
   4.096  0.838E-01  0.279E-01  0.279E-01  0.279E-01
   4.106  0.876E-01  0.292E-01  0.292E-01  0.292E-01
   4.116  0.913E-01  0.304E-01  0.304E-01  0.304E-01
   4.126  0.949E-01  0.316E-01  0.316E-01  0.316E-01
   4.136  0.984E-01  0.328E-01  0.328E-01  0.328E-01
   4.146  0.101E+00  0.338E-01  0.338E-01  0.338E-01
   4.156  0.104E+00  0.347E-01  0.347E-01  0.347E-01
   4.166  0.107E+00  0.355E-01  0.355E-01  0.355E-01
   4.176  0.109E+00  0.362E-01  0.362E-01  0.362E-01
   4.186  0.110E+00  0.367E-01  0.367E-01  0.367E-01
   4.196  0.111E+00  0.371E-01  0.371E-01  0.371E-01
   4.206  0.112E+00  0.373E-01  0.373E-01  0.373E-01
   4.216  0.112E+00  0.374E-01  0.374E-01  0.374E-01
   4.226  0.112E+00  0.375E-01  0.375E-01  0.375E-01
   4.236  0.112E+00  0.374E-01  0.374E-01  0.374E-01
   4.246  0.112E+00  0.372E-01  0.372E-01  0.372E-01
   4.256  0.111E+00  0.370E-01  0.370E-01  0.370E-01
   4.266  0.110E+00  0.367E-01  0.367E-01  0.367E-01
   4.276  0.109E+00  0.364E-01  0.364E-01  0.364E-01
   4.286  0.108E+00  0.360E-01  0.360E-01  0.360E-01
   4.296  0.107E+00  0.355E-01  0.355E-01  0.355E-01
   4.306  0.105E+00  0.350E-01  0.350E-01  0.350E-01
   4.316  0.103E+00  0.344E-01  0.344E-01  0.344E-01
   4.326  0.101E+00  0.338E-01  0.338E-01  0.338E-01
   4.336  0.990E-01  0.330E-01  0.330E-01  0.330E-01
   4.346  0.965E-01  0.322E-01  0.322E-01  0.322E-01
   4.356  0.936E-01  0.312E-01  0.312E-01  0.312E-01
   4.366  0.904E-01  0.301E-01  0.301E-01  0.301E-01
   4.376  0.868E-01  0.289E-01  0.289E-01  0.289E-01
   4.386  0.828E-01  0.276E-01  0.276E-01  0.276E-01
   4.396  0.785E-01  0.262E-01  0.262E-01  0.262E-01
   4.406  0.740E-01  0.247E-01  0.247E-01  0.247E-01
   4.416  0.691E-01  0.230E-01  0.230E-01  0.230E-01
   4.426  0.642E-01  0.214E-01  0.214E-01  0.214E-01
   4.436  0.591E-01  0.197E-01  0.197E-01  0.197E-01
   4.446  0.541E-01  0.180E-01  0.180E-01  0.180E-01
   4.456  0.491E-01  0.164E-01  0.164E-01  0.164E-01
   4.466  0.444E-01  0.148E-01  0.148E-01  0.148E-01
   4.476  0.399E-01  0.133E-01  0.133E-01  0.133E-01
   4.486  0.358E-01  0.119E-01  0.119E-01  0.119E-01
   4.496  0.322E-01  0.107E-01  0.107E-01  0.107E-01
   4.506  0.292E-01  0.973E-02  0.973E-02  0.973E-02
   4.516  0.268E-01  0.894E-02  0.894E-02  0.894E-02
   4.526  0.251E-01  0.838E-02  0.838E-02  0.838E-02
   4.536  0.243E-01  0.809E-02  0.809E-02  0.809E-02
   4.546  0.242E-01  0.808E-02  0.808E-02  0.808E-02
   4.556  0.251E-01  0.837E-02  0.837E-02  0.837E-02
   4.566  0.269E-01  0.898E-02  0.898E-02  0.898E-02
   4.576  0.298E-01  0.992E-02  0.992E-02  0.992E-02
   4.586  0.336E-01  0.112E-01  0.112E-01  0.112E-01
   4.596  0.386E-01  0.129E-01  0.129E-01  0.129E-01
   4.606  0.446E-01  0.149E-01  0.149E-01  0.149E-01
   4.616  0.516E-01  0.172E-01  0.172E-01  0.172E-01
   4.626  0.597E-01  0.199E-01  0.199E-01  0.199E-01
   4.636  0.687E-01  0.229E-01  0.229E-01  0.229E-01
   4.646  0.786E-01  0.262E-01  0.262E-01  0.262E-01
   4.656  0.892E-01  0.297E-01  0.297E-01  0.297E-01
   4.666  0.100E+00  0.335E-01  0.335E-01  0.335E-01
   4.676  0.112E+00  0.374E-01  0.374E-01  0.374E-01
   4.686  0.124E+00  0.413E-01  0.413E-01  0.413E-01
   4.696  0.136E+00  0.452E-01  0.452E-01  0.452E-01
   4.706  0.147E+00  0.491E-01  0.491E-01  0.491E-01
   4.716  0.158E+00  0.528E-01  0.528E-01  0.528E-01
   4.726  0.169E+00  0.562E-01  0.562E-01  0.562E-01
   4.736  0.178E+00  0.594E-01  0.594E-01  0.594E-01
   4.746  0.187E+00  0.622E-01  0.622E-01  0.622E-01
   4.756  0.194E+00  0.646E-01  0.646E-01  0.646E-01
   4.766  0.200E+00  0.666E-01  0.666E-01  0.666E-01
   4.776  0.204E+00  0.681E-01  0.681E-01  0.681E-01
   4.786  0.208E+00  0.693E-01  0.693E-01  0.693E-01
   4.796  0.211E+00  0.702E-01  0.702E-01  0.702E-01
   4.806  0.212E+00  0.707E-01  0.707E-01  0.707E-01
   4.816  0.213E+00  0.711E-01  0.711E-01  0.711E-01
   4.826  0.214E+00  0.714E-01  0.714E-01  0.714E-01
   4.836  0.215E+00  0.717E-01  0.717E-01  0.717E-01
   4.846  0.216E+00  0.721E-01  0.721E-01  0.721E-01
   4.856  0.218E+00  0.727E-01  0.727E-01  0.727E-01
   4.866  0.221E+00  0.737E-01  0.737E-01  0.737E-01
   4.876  0.225E+00  0.751E-01  0.751E-01  0.751E-01
   4.886  0.231E+00  0.770E-01  0.770E-01  0.770E-01
   4.896  0.238E+00  0.793E-01  0.793E-01  0.793E-01
   4.906  0.247E+00  0.822E-01  0.822E-01  0.822E-01
   4.916  0.257E+00  0.856E-01  0.856E-01  0.856E-01
   4.926  0.268E+00  0.894E-01  0.894E-01  0.894E-01
   4.936  0.281E+00  0.936E-01  0.936E-01  0.936E-01
   4.946  0.294E+00  0.981E-01  0.981E-01  0.981E-01
   4.956  0.308E+00  0.103E+00  0.103E+00  0.103E+00
   4.966  0.322E+00  0.107E+00  0.107E+00  0.107E+00
   4.976  0.336E+00  0.112E+00  0.112E+00  0.112E+00
   4.986  0.349E+00  0.116E+00  0.116E+00  0.116E+00
   4.996  0.361E+00  0.120E+00  0.120E+00  0.120E+00
   5.006  0.372E+00  0.124E+00  0.124E+00  0.124E+00
   5.016  0.381E+00  0.127E+00  0.127E+00  0.127E+00
   5.026  0.388E+00  0.129E+00  0.129E+00  0.129E+00
   5.036  0.393E+00  0.131E+00  0.131E+00  0.131E+00
   5.046  0.397E+00  0.132E+00  0.132E+00  0.132E+00
   5.056  0.398E+00  0.133E+00  0.133E+00  0.133E+00
   5.066  0.398E+00  0.133E+00  0.133E+00  0.133E+00
   5.076  0.395E+00  0.132E+00  0.132E+00  0.132E+00
   5.086  0.392E+00  0.131E+00  0.131E+00  0.131E+00
   5.096  0.387E+00  0.129E+00  0.129E+00  0.129E+00
   5.106  0.381E+00  0.127E+00  0.127E+00  0.127E+00
   5.116  0.375E+00  0.125E+00  0.125E+00  0.125E+00
   5.126  0.368E+00  0.123E+00  0.123E+00  0.123E+00
   5.136  0.361E+00  0.120E+00  0.120E+00  0.120E+00
   5.146  0.354E+00  0.118E+00  0.118E+00  0.118E+00
   5.156  0.347E+00  0.116E+00  0.116E+00  0.116E+00
   5.166  0.341E+00  0.114E+00  0.114E+00  0.114E+00
   5.176  0.335E+00  0.112E+00  0.112E+00  0.112E+00
   5.186  0.330E+00  0.110E+00  0.110E+00  0.110E+00
   5.196  0.325E+00  0.108E+00  0.108E+00  0.108E+00
   5.206  0.320E+00  0.107E+00  0.107E+00  0.107E+00
   5.216  0.316E+00  0.105E+00  0.105E+00  0.105E+00
   5.226  0.313E+00  0.104E+00  0.104E+00  0.104E+00
   5.236  0.309E+00  0.103E+00  0.103E+00  0.103E+00
   5.246  0.306E+00  0.102E+00  0.102E+00  0.102E+00
   5.256  0.302E+00  0.101E+00  0.101E+00  0.101E+00
   5.266  0.298E+00  0.994E-01  0.994E-01  0.994E-01
   5.276  0.294E+00  0.981E-01  0.981E-01  0.981E-01
   5.286  0.290E+00  0.966E-01  0.966E-01  0.966E-01
   5.296  0.285E+00  0.951E-01  0.951E-01  0.951E-01
   5.306  0.280E+00  0.934E-01  0.934E-01  0.934E-01
   5.316  0.275E+00  0.917E-01  0.917E-01  0.917E-01
   5.326  0.270E+00  0.898E-01  0.898E-01  0.898E-01
   5.336  0.264E+00  0.879E-01  0.879E-01  0.879E-01
   5.346  0.258E+00  0.860E-01  0.860E-01  0.860E-01
   5.356  0.252E+00  0.840E-01  0.840E-01  0.840E-01
   5.366  0.246E+00  0.821E-01  0.821E-01  0.821E-01
   5.376  0.241E+00  0.802E-01  0.802E-01  0.802E-01
   5.386  0.235E+00  0.785E-01  0.785E-01  0.785E-01
   5.396  0.230E+00  0.768E-01  0.768E-01  0.768E-01
   5.406  0.226E+00  0.753E-01  0.753E-01  0.753E-01
   5.416  0.222E+00  0.740E-01  0.740E-01  0.740E-01
   5.426  0.218E+00  0.728E-01  0.728E-01  0.728E-01
   5.436  0.215E+00  0.717E-01  0.717E-01  0.717E-01
   5.446  0.213E+00  0.708E-01  0.708E-01  0.708E-01
   5.456  0.210E+00  0.700E-01  0.700E-01  0.700E-01
   5.466  0.208E+00  0.694E-01  0.694E-01  0.694E-01
   5.476  0.206E+00  0.688E-01  0.688E-01  0.688E-01
   5.486  0.205E+00  0.682E-01  0.682E-01  0.682E-01
   5.496  0.203E+00  0.677E-01  0.677E-01  0.677E-01
   5.506  0.202E+00  0.672E-01  0.672E-01  0.672E-01
   5.516  0.200E+00  0.667E-01  0.667E-01  0.667E-01
   5.526  0.199E+00  0.662E-01  0.662E-01  0.662E-01
   5.536  0.197E+00  0.657E-01  0.657E-01  0.657E-01
   5.546  0.196E+00  0.652E-01  0.652E-01  0.652E-01
   5.556  0.194E+00  0.648E-01  0.648E-01  0.648E-01
   5.566  0.193E+00  0.644E-01  0.644E-01  0.644E-01
   5.576  0.192E+00  0.640E-01  0.640E-01  0.640E-01
   5.586  0.191E+00  0.637E-01  0.637E-01  0.637E-01
   5.596  0.191E+00  0.635E-01  0.635E-01  0.635E-01
   5.606  0.190E+00  0.634E-01  0.634E-01  0.634E-01
   5.616  0.190E+00  0.635E-01  0.635E-01  0.635E-01
   5.626  0.191E+00  0.636E-01  0.636E-01  0.636E-01
   5.636  0.192E+00  0.639E-01  0.639E-01  0.639E-01
   5.646  0.193E+00  0.643E-01  0.643E-01  0.643E-01
   5.656  0.194E+00  0.648E-01  0.648E-01  0.648E-01
   5.666  0.196E+00  0.654E-01  0.654E-01  0.654E-01
   5.676  0.198E+00  0.660E-01  0.660E-01  0.660E-01
   5.686  0.200E+00  0.667E-01  0.667E-01  0.667E-01
   5.696  0.202E+00  0.674E-01  0.674E-01  0.674E-01
   5.706  0.204E+00  0.681E-01  0.681E-01  0.681E-01
   5.716  0.206E+00  0.687E-01  0.687E-01  0.687E-01
   5.726  0.208E+00  0.692E-01  0.692E-01  0.692E-01
   5.736  0.209E+00  0.696E-01  0.696E-01  0.696E-01
   5.746  0.209E+00  0.698E-01  0.698E-01  0.698E-01
   5.756  0.209E+00  0.698E-01  0.698E-01  0.698E-01
   5.766  0.209E+00  0.696E-01  0.696E-01  0.696E-01
   5.776  0.207E+00  0.691E-01  0.691E-01  0.691E-01
   5.786  0.205E+00  0.684E-01  0.684E-01  0.684E-01
   5.796  0.202E+00  0.674E-01  0.674E-01  0.674E-01
   5.806  0.199E+00  0.662E-01  0.662E-01  0.662E-01
   5.816  0.194E+00  0.647E-01  0.647E-01  0.647E-01
   5.826  0.189E+00  0.630E-01  0.630E-01  0.630E-01
   5.836  0.183E+00  0.611E-01  0.611E-01  0.611E-01
   5.846  0.177E+00  0.591E-01  0.591E-01  0.591E-01
   5.856  0.171E+00  0.569E-01  0.569E-01  0.569E-01
   5.866  0.164E+00  0.548E-01  0.548E-01  0.548E-01
   5.876  0.158E+00  0.526E-01  0.526E-01  0.526E-01
   5.886  0.151E+00  0.505E-01  0.505E-01  0.505E-01
   5.896  0.145E+00  0.484E-01  0.484E-01  0.484E-01
   5.906  0.140E+00  0.465E-01  0.465E-01  0.465E-01
   5.916  0.135E+00  0.448E-01  0.448E-01  0.448E-01
   5.926  0.130E+00  0.433E-01  0.433E-01  0.433E-01
   5.936  0.126E+00  0.420E-01  0.420E-01  0.420E-01
   5.946  0.123E+00  0.409E-01  0.409E-01  0.409E-01
   5.956  0.120E+00  0.399E-01  0.399E-01  0.399E-01
   5.966  0.118E+00  0.392E-01  0.392E-01  0.392E-01
   5.976  0.116E+00  0.386E-01  0.386E-01  0.386E-01
   5.986  0.114E+00  0.380E-01  0.380E-01  0.380E-01
   5.996  0.113E+00  0.375E-01  0.375E-01  0.375E-01
   6.006  0.111E+00  0.371E-01  0.371E-01  0.371E-01
   6.016  0.110E+00  0.366E-01  0.366E-01  0.366E-01
   6.026  0.108E+00  0.361E-01  0.361E-01  0.361E-01
   6.036  0.107E+00  0.355E-01  0.355E-01  0.355E-01
   6.046  0.105E+00  0.349E-01  0.349E-01  0.349E-01
   6.056  0.103E+00  0.342E-01  0.342E-01  0.342E-01
   6.066  0.100E+00  0.335E-01  0.335E-01  0.335E-01
   6.076  0.981E-01  0.327E-01  0.327E-01  0.327E-01
   6.086  0.961E-01  0.320E-01  0.320E-01  0.320E-01
   6.096  0.943E-01  0.314E-01  0.314E-01  0.314E-01
   6.106  0.931E-01  0.310E-01  0.310E-01  0.310E-01
   6.116  0.926E-01  0.309E-01  0.309E-01  0.309E-01
   6.126  0.931E-01  0.310E-01  0.310E-01  0.310E-01
   6.136  0.948E-01  0.316E-01  0.316E-01  0.316E-01
   6.146  0.979E-01  0.326E-01  0.326E-01  0.326E-01
   6.156  0.103E+00  0.342E-01  0.342E-01  0.342E-01
   6.166  0.109E+00  0.364E-01  0.364E-01  0.364E-01
   6.176  0.117E+00  0.391E-01  0.391E-01  0.391E-01
   6.186  0.128E+00  0.426E-01  0.426E-01  0.426E-01
   6.196  0.140E+00  0.466E-01  0.466E-01  0.466E-01
   6.206  0.154E+00  0.513E-01  0.513E-01  0.513E-01
   6.216  0.170E+00  0.566E-01  0.566E-01  0.566E-01
   6.226  0.187E+00  0.624E-01  0.624E-01  0.624E-01
   6.236  0.206E+00  0.687E-01  0.687E-01  0.687E-01
   6.246  0.226E+00  0.754E-01  0.754E-01  0.754E-01
   6.256  0.247E+00  0.823E-01  0.823E-01  0.823E-01
   6.266  0.268E+00  0.894E-01  0.894E-01  0.894E-01
   6.276  0.290E+00  0.965E-01  0.965E-01  0.965E-01
   6.286  0.311E+00  0.104E+00  0.104E+00  0.104E+00
   6.296  0.331E+00  0.110E+00  0.110E+00  0.110E+00
   6.306  0.351E+00  0.117E+00  0.117E+00  0.117E+00
   6.316  0.369E+00  0.123E+00  0.123E+00  0.123E+00
   6.326  0.386E+00  0.129E+00  0.129E+00  0.129E+00
   6.336  0.402E+00  0.134E+00  0.134E+00  0.134E+00
   6.346  0.416E+00  0.139E+00  0.139E+00  0.139E+00
   6.356  0.428E+00  0.143E+00  0.143E+00  0.143E+00
   6.366  0.438E+00  0.146E+00  0.146E+00  0.146E+00
   6.376  0.447E+00  0.149E+00  0.149E+00  0.149E+00
   6.386  0.455E+00  0.152E+00  0.152E+00  0.152E+00
   6.396  0.462E+00  0.154E+00  0.154E+00  0.154E+00
   6.406  0.467E+00  0.156E+00  0.156E+00  0.156E+00
   6.416  0.472E+00  0.157E+00  0.157E+00  0.157E+00
   6.426  0.476E+00  0.159E+00  0.159E+00  0.159E+00
   6.436  0.480E+00  0.160E+00  0.160E+00  0.160E+00
   6.446  0.484E+00  0.161E+00  0.161E+00  0.161E+00
   6.456  0.487E+00  0.162E+00  0.162E+00  0.162E+00
   6.466  0.491E+00  0.164E+00  0.164E+00  0.164E+00
   6.476  0.494E+00  0.165E+00  0.165E+00  0.165E+00
   6.486  0.496E+00  0.165E+00  0.165E+00  0.165E+00
   6.496  0.498E+00  0.166E+00  0.166E+00  0.166E+00
   6.506  0.500E+00  0.167E+00  0.167E+00  0.167E+00
   6.516  0.501E+00  0.167E+00  0.167E+00  0.167E+00
   6.526  0.500E+00  0.167E+00  0.167E+00  0.167E+00
   6.536  0.498E+00  0.166E+00  0.166E+00  0.166E+00
   6.546  0.495E+00  0.165E+00  0.165E+00  0.165E+00
   6.556  0.491E+00  0.164E+00  0.164E+00  0.164E+00
   6.566  0.485E+00  0.162E+00  0.162E+00  0.162E+00
   6.576  0.477E+00  0.159E+00  0.159E+00  0.159E+00
   6.586  0.469E+00  0.156E+00  0.156E+00  0.156E+00
   6.596  0.459E+00  0.153E+00  0.153E+00  0.153E+00
   6.606  0.448E+00  0.149E+00  0.149E+00  0.149E+00
   6.616  0.437E+00  0.146E+00  0.146E+00  0.146E+00
   6.626  0.425E+00  0.142E+00  0.142E+00  0.142E+00
   6.636  0.414E+00  0.138E+00  0.138E+00  0.138E+00
   6.646  0.403E+00  0.134E+00  0.134E+00  0.134E+00
   6.656  0.392E+00  0.131E+00  0.131E+00  0.131E+00
   6.666  0.382E+00  0.127E+00  0.127E+00  0.127E+00
   6.676  0.373E+00  0.124E+00  0.124E+00  0.124E+00
   6.686  0.366E+00  0.122E+00  0.122E+00  0.122E+00
   6.696  0.359E+00  0.120E+00  0.120E+00  0.120E+00
   6.706  0.354E+00  0.118E+00  0.118E+00  0.118E+00
   6.716  0.350E+00  0.117E+00  0.117E+00  0.117E+00
   6.726  0.347E+00  0.116E+00  0.116E+00  0.116E+00
   6.736  0.345E+00  0.115E+00  0.115E+00  0.115E+00
   6.746  0.344E+00  0.115E+00  0.115E+00  0.115E+00
   6.756  0.344E+00  0.115E+00  0.115E+00  0.115E+00
   6.766  0.344E+00  0.115E+00  0.115E+00  0.115E+00
   6.776  0.345E+00  0.115E+00  0.115E+00  0.115E+00
   6.786  0.346E+00  0.115E+00  0.115E+00  0.115E+00
   6.796  0.347E+00  0.116E+00  0.116E+00  0.116E+00
   6.806  0.349E+00  0.116E+00  0.116E+00  0.116E+00
   6.816  0.352E+00  0.117E+00  0.117E+00  0.117E+00
   6.826  0.355E+00  0.118E+00  0.118E+00  0.118E+00
   6.836  0.359E+00  0.120E+00  0.120E+00  0.120E+00
   6.846  0.363E+00  0.121E+00  0.121E+00  0.121E+00
   6.856  0.369E+00  0.123E+00  0.123E+00  0.123E+00
   6.866  0.375E+00  0.125E+00  0.125E+00  0.125E+00
   6.876  0.383E+00  0.128E+00  0.128E+00  0.128E+00
   6.886  0.392E+00  0.131E+00  0.131E+00  0.131E+00
   6.896  0.401E+00  0.134E+00  0.134E+00  0.134E+00
   6.906  0.412E+00  0.137E+00  0.137E+00  0.137E+00
   6.916  0.423E+00  0.141E+00  0.141E+00  0.141E+00
   6.926  0.435E+00  0.145E+00  0.145E+00  0.145E+00
   6.936  0.447E+00  0.149E+00  0.149E+00  0.149E+00
   6.946  0.459E+00  0.153E+00  0.153E+00  0.153E+00
   6.956  0.469E+00  0.156E+00  0.156E+00  0.156E+00
   6.966  0.478E+00  0.159E+00  0.159E+00  0.159E+00
   6.976  0.486E+00  0.162E+00  0.162E+00  0.162E+00
   6.986  0.491E+00  0.164E+00  0.164E+00  0.164E+00
   6.996  0.493E+00  0.164E+00  0.164E+00  0.164E+00
   7.006  0.492E+00  0.164E+00  0.164E+00  0.164E+00
   7.016  0.488E+00  0.163E+00  0.163E+00  0.163E+00
   7.026  0.481E+00  0.160E+00  0.160E+00  0.160E+00
   7.036  0.470E+00  0.157E+00  0.157E+00  0.157E+00
   7.046  0.456E+00  0.152E+00  0.152E+00  0.152E+00
   7.056  0.439E+00  0.146E+00  0.146E+00  0.146E+00
   7.066  0.419E+00  0.140E+00  0.140E+00  0.140E+00
   7.076  0.397E+00  0.132E+00  0.132E+00  0.132E+00
   7.086  0.373E+00  0.124E+00  0.124E+00  0.124E+00
   7.096  0.347E+00  0.116E+00  0.116E+00  0.116E+00
   7.106  0.321E+00  0.107E+00  0.107E+00  0.107E+00
   7.116  0.295E+00  0.983E-01  0.983E-01  0.983E-01
   7.126  0.269E+00  0.897E-01  0.897E-01  0.897E-01
   7.136  0.244E+00  0.814E-01  0.814E-01  0.814E-01
   7.146  0.221E+00  0.736E-01  0.736E-01  0.736E-01
   7.156  0.199E+00  0.664E-01  0.664E-01  0.664E-01
   7.166  0.180E+00  0.599E-01  0.599E-01  0.599E-01
   7.176  0.162E+00  0.541E-01  0.541E-01  0.541E-01
   7.186  0.147E+00  0.491E-01  0.491E-01  0.491E-01
   7.196  0.135E+00  0.450E-01  0.450E-01  0.450E-01
   7.206  0.125E+00  0.417E-01  0.417E-01  0.417E-01
   7.216  0.117E+00  0.391E-01  0.391E-01  0.391E-01
   7.226  0.112E+00  0.373E-01  0.373E-01  0.373E-01
   7.236  0.108E+00  0.361E-01  0.361E-01  0.361E-01
   7.246  0.106E+00  0.354E-01  0.354E-01  0.354E-01
   7.256  0.106E+00  0.352E-01  0.352E-01  0.352E-01
   7.266  0.106E+00  0.354E-01  0.354E-01  0.354E-01
   7.276  0.108E+00  0.359E-01  0.359E-01  0.359E-01
   7.286  0.110E+00  0.365E-01  0.365E-01  0.365E-01
   7.296  0.112E+00  0.372E-01  0.372E-01  0.372E-01
   7.306  0.114E+00  0.380E-01  0.380E-01  0.380E-01
   7.316  0.116E+00  0.387E-01  0.387E-01  0.387E-01
   7.326  0.118E+00  0.394E-01  0.394E-01  0.394E-01
   7.336  0.120E+00  0.400E-01  0.400E-01  0.400E-01
   7.346  0.122E+00  0.406E-01  0.406E-01  0.406E-01
   7.356  0.123E+00  0.411E-01  0.411E-01  0.411E-01
   7.366  0.125E+00  0.416E-01  0.416E-01  0.416E-01
   7.376  0.126E+00  0.421E-01  0.421E-01  0.421E-01
   7.386  0.128E+00  0.428E-01  0.428E-01  0.428E-01
   7.396  0.131E+00  0.436E-01  0.436E-01  0.436E-01
   7.406  0.134E+00  0.446E-01  0.446E-01  0.446E-01
   7.416  0.138E+00  0.459E-01  0.459E-01  0.459E-01
   7.426  0.142E+00  0.475E-01  0.475E-01  0.475E-01
   7.436  0.148E+00  0.495E-01  0.495E-01  0.495E-01
   7.446  0.156E+00  0.519E-01  0.519E-01  0.519E-01
   7.456  0.164E+00  0.546E-01  0.546E-01  0.546E-01
   7.466  0.173E+00  0.578E-01  0.578E-01  0.578E-01
   7.476  0.184E+00  0.613E-01  0.613E-01  0.613E-01
   7.486  0.195E+00  0.651E-01  0.651E-01  0.651E-01
   7.496  0.207E+00  0.691E-01  0.691E-01  0.691E-01
   7.506  0.220E+00  0.733E-01  0.733E-01  0.733E-01
   7.516  0.232E+00  0.775E-01  0.775E-01  0.775E-01
   7.526  0.245E+00  0.816E-01  0.816E-01  0.816E-01
   7.536  0.256E+00  0.855E-01  0.855E-01  0.855E-01
   7.546  0.267E+00  0.891E-01  0.891E-01  0.891E-01
   7.556  0.277E+00  0.923E-01  0.923E-01  0.923E-01
   7.566  0.285E+00  0.949E-01  0.949E-01  0.949E-01
   7.576  0.291E+00  0.970E-01  0.970E-01  0.970E-01
   7.586  0.295E+00  0.983E-01  0.983E-01  0.983E-01
   7.596  0.297E+00  0.990E-01  0.990E-01  0.990E-01
   7.606  0.297E+00  0.988E-01  0.988E-01  0.988E-01
   7.616  0.294E+00  0.980E-01  0.980E-01  0.980E-01
   7.626  0.289E+00  0.964E-01  0.964E-01  0.964E-01
   7.636  0.282E+00  0.940E-01  0.940E-01  0.940E-01
   7.646  0.273E+00  0.911E-01  0.911E-01  0.911E-01
   7.656  0.263E+00  0.876E-01  0.876E-01  0.876E-01
   7.666  0.251E+00  0.837E-01  0.837E-01  0.837E-01
   7.676  0.238E+00  0.795E-01  0.795E-01  0.795E-01
   7.686  0.225E+00  0.750E-01  0.750E-01  0.750E-01
   7.696  0.211E+00  0.705E-01  0.705E-01  0.705E-01
   7.706  0.198E+00  0.660E-01  0.660E-01  0.660E-01
   7.716  0.185E+00  0.616E-01  0.616E-01  0.616E-01
   7.726  0.172E+00  0.575E-01  0.575E-01  0.575E-01
   7.736  0.161E+00  0.538E-01  0.538E-01  0.538E-01
   7.746  0.151E+00  0.504E-01  0.504E-01  0.504E-01
   7.756  0.143E+00  0.476E-01  0.476E-01  0.476E-01
   7.766  0.136E+00  0.454E-01  0.454E-01  0.454E-01
   7.776  0.131E+00  0.437E-01  0.437E-01  0.437E-01
   7.786  0.128E+00  0.426E-01  0.426E-01  0.426E-01
   7.796  0.126E+00  0.421E-01  0.421E-01  0.421E-01
   7.806  0.126E+00  0.421E-01  0.421E-01  0.421E-01
   7.816  0.128E+00  0.426E-01  0.426E-01  0.426E-01
   7.826  0.131E+00  0.436E-01  0.436E-01  0.436E-01
   7.836  0.135E+00  0.450E-01  0.450E-01  0.450E-01
   7.846  0.140E+00  0.467E-01  0.467E-01  0.467E-01
   7.856  0.146E+00  0.487E-01  0.487E-01  0.487E-01
   7.866  0.152E+00  0.508E-01  0.508E-01  0.508E-01
   7.876  0.159E+00  0.530E-01  0.530E-01  0.530E-01
   7.886  0.166E+00  0.552E-01  0.552E-01  0.552E-01
   7.896  0.172E+00  0.573E-01  0.573E-01  0.573E-01
   7.906  0.178E+00  0.594E-01  0.594E-01  0.594E-01
   7.916  0.184E+00  0.612E-01  0.612E-01  0.612E-01
   7.926  0.188E+00  0.628E-01  0.628E-01  0.628E-01
   7.936  0.193E+00  0.642E-01  0.642E-01  0.642E-01
   7.946  0.196E+00  0.653E-01  0.653E-01  0.653E-01
   7.956  0.198E+00  0.661E-01  0.661E-01  0.661E-01
   7.966  0.200E+00  0.666E-01  0.666E-01  0.666E-01
   7.976  0.200E+00  0.668E-01  0.668E-01  0.668E-01
   7.986  0.200E+00  0.667E-01  0.667E-01  0.667E-01
   7.996  0.199E+00  0.664E-01  0.664E-01  0.664E-01
   8.006  0.198E+00  0.659E-01  0.659E-01  0.659E-01
   8.016  0.196E+00  0.653E-01  0.653E-01  0.653E-01
   8.026  0.194E+00  0.645E-01  0.645E-01  0.645E-01
   8.036  0.191E+00  0.637E-01  0.637E-01  0.637E-01
   8.046  0.188E+00  0.628E-01  0.628E-01  0.628E-01
   8.056  0.186E+00  0.620E-01  0.620E-01  0.620E-01
   8.066  0.184E+00  0.613E-01  0.613E-01  0.613E-01
   8.076  0.182E+00  0.607E-01  0.607E-01  0.607E-01
   8.086  0.181E+00  0.603E-01  0.603E-01  0.603E-01
   8.096  0.180E+00  0.600E-01  0.600E-01  0.600E-01
   8.106  0.180E+00  0.600E-01  0.600E-01  0.600E-01
   8.116  0.180E+00  0.601E-01  0.601E-01  0.601E-01
   8.126  0.181E+00  0.605E-01  0.605E-01  0.605E-01
   8.136  0.183E+00  0.610E-01  0.610E-01  0.610E-01
   8.146  0.185E+00  0.616E-01  0.616E-01  0.616E-01
   8.156  0.187E+00  0.624E-01  0.624E-01  0.624E-01
   8.166  0.189E+00  0.631E-01  0.631E-01  0.631E-01
   8.176  0.191E+00  0.638E-01  0.638E-01  0.638E-01
   8.186  0.193E+00  0.643E-01  0.643E-01  0.643E-01
   8.196  0.194E+00  0.647E-01  0.647E-01  0.647E-01
   8.206  0.195E+00  0.649E-01  0.649E-01  0.649E-01
   8.216  0.194E+00  0.647E-01  0.647E-01  0.647E-01
   8.226  0.193E+00  0.642E-01  0.642E-01  0.642E-01
   8.236  0.190E+00  0.633E-01  0.633E-01  0.633E-01
   8.246  0.186E+00  0.620E-01  0.620E-01  0.620E-01
   8.256  0.181E+00  0.604E-01  0.604E-01  0.604E-01
   8.266  0.175E+00  0.584E-01  0.584E-01  0.584E-01
   8.276  0.168E+00  0.560E-01  0.560E-01  0.560E-01
   8.286  0.160E+00  0.534E-01  0.534E-01  0.534E-01
   8.296  0.152E+00  0.506E-01  0.506E-01  0.506E-01
   8.306  0.143E+00  0.476E-01  0.476E-01  0.476E-01
   8.316  0.134E+00  0.446E-01  0.446E-01  0.446E-01
   8.326  0.125E+00  0.415E-01  0.415E-01  0.415E-01
   8.336  0.116E+00  0.386E-01  0.386E-01  0.386E-01
   8.346  0.108E+00  0.359E-01  0.359E-01  0.359E-01
   8.356  0.101E+00  0.335E-01  0.335E-01  0.335E-01
   8.366  0.942E-01  0.314E-01  0.314E-01  0.314E-01
   8.376  0.890E-01  0.297E-01  0.297E-01  0.297E-01
   8.386  0.852E-01  0.284E-01  0.284E-01  0.284E-01
   8.396  0.827E-01  0.276E-01  0.276E-01  0.276E-01
   8.406  0.818E-01  0.273E-01  0.273E-01  0.273E-01
   8.416  0.823E-01  0.274E-01  0.274E-01  0.274E-01
   8.426  0.842E-01  0.281E-01  0.281E-01  0.281E-01
   8.436  0.876E-01  0.292E-01  0.292E-01  0.292E-01
   8.446  0.923E-01  0.308E-01  0.308E-01  0.308E-01
   8.456  0.982E-01  0.327E-01  0.327E-01  0.327E-01
   8.466  0.105E+00  0.350E-01  0.350E-01  0.350E-01
   8.476  0.113E+00  0.376E-01  0.376E-01  0.376E-01
   8.486  0.121E+00  0.405E-01  0.405E-01  0.405E-01
   8.496  0.130E+00  0.435E-01  0.435E-01  0.435E-01
   8.506  0.140E+00  0.466E-01  0.466E-01  0.466E-01
   8.516  0.149E+00  0.497E-01  0.497E-01  0.497E-01
   8.526  0.158E+00  0.528E-01  0.528E-01  0.528E-01
   8.536  0.167E+00  0.557E-01  0.557E-01  0.557E-01
   8.546  0.176E+00  0.585E-01  0.585E-01  0.585E-01
   8.556  0.183E+00  0.611E-01  0.611E-01  0.611E-01
   8.566  0.190E+00  0.634E-01  0.634E-01  0.634E-01
   8.576  0.196E+00  0.653E-01  0.653E-01  0.653E-01
   8.586  0.201E+00  0.669E-01  0.669E-01  0.669E-01
   8.596  0.204E+00  0.681E-01  0.681E-01  0.681E-01
   8.606  0.207E+00  0.689E-01  0.689E-01  0.689E-01
   8.616  0.208E+00  0.693E-01  0.693E-01  0.693E-01
   8.626  0.208E+00  0.694E-01  0.694E-01  0.694E-01
   8.636  0.207E+00  0.690E-01  0.690E-01  0.690E-01
   8.646  0.205E+00  0.684E-01  0.684E-01  0.684E-01
   8.656  0.202E+00  0.674E-01  0.674E-01  0.674E-01
   8.666  0.199E+00  0.662E-01  0.662E-01  0.662E-01
   8.676  0.195E+00  0.649E-01  0.649E-01  0.649E-01
   8.686  0.190E+00  0.634E-01  0.634E-01  0.634E-01
   8.696  0.185E+00  0.618E-01  0.618E-01  0.618E-01
   8.706  0.181E+00  0.602E-01  0.602E-01  0.602E-01
   8.716  0.176E+00  0.587E-01  0.587E-01  0.587E-01
   8.726  0.172E+00  0.572E-01  0.572E-01  0.572E-01
   8.736  0.168E+00  0.558E-01  0.558E-01  0.558E-01
   8.746  0.164E+00  0.546E-01  0.546E-01  0.546E-01
   8.756  0.161E+00  0.536E-01  0.536E-01  0.536E-01
   8.766  0.158E+00  0.528E-01  0.528E-01  0.528E-01
   8.776  0.156E+00  0.521E-01  0.521E-01  0.521E-01
   8.786  0.155E+00  0.517E-01  0.517E-01  0.517E-01
   8.796  0.154E+00  0.514E-01  0.514E-01  0.514E-01
   8.806  0.154E+00  0.514E-01  0.514E-01  0.514E-01
   8.816  0.154E+00  0.514E-01  0.514E-01  0.514E-01
   8.826  0.155E+00  0.517E-01  0.517E-01  0.517E-01
   8.836  0.156E+00  0.520E-01  0.520E-01  0.520E-01
   8.846  0.157E+00  0.524E-01  0.524E-01  0.524E-01
   8.856  0.159E+00  0.530E-01  0.530E-01  0.530E-01
   8.866  0.161E+00  0.536E-01  0.536E-01  0.536E-01
   8.876  0.163E+00  0.542E-01  0.542E-01  0.542E-01
   8.886  0.165E+00  0.549E-01  0.549E-01  0.549E-01
   8.896  0.167E+00  0.555E-01  0.555E-01  0.555E-01
   8.906  0.169E+00  0.562E-01  0.562E-01  0.562E-01
   8.916  0.170E+00  0.568E-01  0.568E-01  0.568E-01
   8.926  0.172E+00  0.573E-01  0.573E-01  0.573E-01
   8.936  0.173E+00  0.578E-01  0.578E-01  0.578E-01
   8.946  0.174E+00  0.581E-01  0.581E-01  0.581E-01
   8.956  0.175E+00  0.582E-01  0.582E-01  0.582E-01
   8.966  0.175E+00  0.582E-01  0.582E-01  0.582E-01
   8.976  0.174E+00  0.580E-01  0.580E-01  0.580E-01
   8.986  0.172E+00  0.575E-01  0.575E-01  0.575E-01
   8.996  0.170E+00  0.567E-01  0.567E-01  0.567E-01
   9.006  0.167E+00  0.557E-01  0.557E-01  0.557E-01
   9.016  0.163E+00  0.545E-01  0.545E-01  0.545E-01
   9.026  0.159E+00  0.529E-01  0.529E-01  0.529E-01
   9.036  0.153E+00  0.511E-01  0.511E-01  0.511E-01
   9.046  0.147E+00  0.491E-01  0.491E-01  0.491E-01
   9.056  0.141E+00  0.469E-01  0.469E-01  0.469E-01
   9.066  0.133E+00  0.445E-01  0.445E-01  0.445E-01
   9.076  0.126E+00  0.420E-01  0.420E-01  0.420E-01
   9.086  0.118E+00  0.395E-01  0.395E-01  0.395E-01
   9.096  0.111E+00  0.369E-01  0.369E-01  0.369E-01
   9.106  0.103E+00  0.344E-01  0.344E-01  0.344E-01
   9.116  0.961E-01  0.320E-01  0.320E-01  0.320E-01
   9.126  0.895E-01  0.298E-01  0.298E-01  0.298E-01
   9.136  0.837E-01  0.279E-01  0.279E-01  0.279E-01
   9.146  0.787E-01  0.262E-01  0.262E-01  0.262E-01
   9.156  0.746E-01  0.249E-01  0.249E-01  0.249E-01
   9.166  0.717E-01  0.239E-01  0.239E-01  0.239E-01
   9.176  0.700E-01  0.233E-01  0.233E-01  0.233E-01
   9.186  0.695E-01  0.232E-01  0.232E-01  0.232E-01
   9.196  0.702E-01  0.234E-01  0.234E-01  0.234E-01
   9.206  0.722E-01  0.241E-01  0.241E-01  0.241E-01
   9.216  0.754E-01  0.251E-01  0.251E-01  0.251E-01
   9.226  0.797E-01  0.266E-01  0.266E-01  0.266E-01
   9.236  0.850E-01  0.283E-01  0.283E-01  0.283E-01
   9.246  0.912E-01  0.304E-01  0.304E-01  0.304E-01
   9.256  0.980E-01  0.327E-01  0.327E-01  0.327E-01
   9.266  0.105E+00  0.351E-01  0.351E-01  0.351E-01
   9.276  0.113E+00  0.377E-01  0.377E-01  0.377E-01
   9.286  0.121E+00  0.403E-01  0.403E-01  0.403E-01
   9.296  0.129E+00  0.429E-01  0.429E-01  0.429E-01
   9.306  0.136E+00  0.454E-01  0.454E-01  0.454E-01
   9.316  0.144E+00  0.479E-01  0.479E-01  0.479E-01
   9.326  0.150E+00  0.501E-01  0.501E-01  0.501E-01
   9.336  0.156E+00  0.522E-01  0.522E-01  0.522E-01
   9.346  0.162E+00  0.540E-01  0.540E-01  0.540E-01
   9.356  0.167E+00  0.556E-01  0.556E-01  0.556E-01
   9.366  0.171E+00  0.570E-01  0.570E-01  0.570E-01
   9.376  0.174E+00  0.582E-01  0.582E-01  0.582E-01
   9.386  0.177E+00  0.591E-01  0.591E-01  0.591E-01
   9.396  0.180E+00  0.599E-01  0.599E-01  0.599E-01
   9.406  0.182E+00  0.606E-01  0.606E-01  0.606E-01
   9.416  0.183E+00  0.611E-01  0.611E-01  0.611E-01
   9.426  0.185E+00  0.616E-01  0.616E-01  0.616E-01
   9.436  0.186E+00  0.620E-01  0.620E-01  0.620E-01
   9.446  0.187E+00  0.623E-01  0.623E-01  0.623E-01
   9.456  0.188E+00  0.627E-01  0.627E-01  0.627E-01
   9.466  0.189E+00  0.630E-01  0.630E-01  0.630E-01
   9.476  0.190E+00  0.632E-01  0.632E-01  0.632E-01
   9.486  0.190E+00  0.635E-01  0.635E-01  0.635E-01
   9.496  0.191E+00  0.637E-01  0.637E-01  0.637E-01
   9.506  0.192E+00  0.639E-01  0.639E-01  0.639E-01
   9.516  0.192E+00  0.640E-01  0.640E-01  0.640E-01
   9.526  0.192E+00  0.640E-01  0.640E-01  0.640E-01
   9.536  0.192E+00  0.639E-01  0.639E-01  0.639E-01
   9.546  0.191E+00  0.636E-01  0.636E-01  0.636E-01
   9.556  0.190E+00  0.633E-01  0.633E-01  0.633E-01
   9.566  0.188E+00  0.628E-01  0.628E-01  0.628E-01
   9.576  0.187E+00  0.622E-01  0.622E-01  0.622E-01
   9.586  0.184E+00  0.615E-01  0.615E-01  0.615E-01
   9.596  0.182E+00  0.606E-01  0.606E-01  0.606E-01
   9.606  0.179E+00  0.597E-01  0.597E-01  0.597E-01
   9.616  0.176E+00  0.587E-01  0.587E-01  0.587E-01
   9.626  0.173E+00  0.576E-01  0.576E-01  0.576E-01
   9.636  0.169E+00  0.565E-01  0.565E-01  0.565E-01
   9.646  0.166E+00  0.553E-01  0.553E-01  0.553E-01
   9.656  0.162E+00  0.542E-01  0.542E-01  0.542E-01
   9.666  0.159E+00  0.530E-01  0.530E-01  0.530E-01
   9.676  0.156E+00  0.519E-01  0.519E-01  0.519E-01
   9.686  0.152E+00  0.507E-01  0.507E-01  0.507E-01
   9.696  0.149E+00  0.496E-01  0.496E-01  0.496E-01
   9.706  0.145E+00  0.484E-01  0.484E-01  0.484E-01
   9.716  0.142E+00  0.472E-01  0.472E-01  0.472E-01
   9.726  0.138E+00  0.460E-01  0.460E-01  0.460E-01
   9.736  0.134E+00  0.447E-01  0.447E-01  0.447E-01
   9.746  0.130E+00  0.434E-01  0.434E-01  0.434E-01
   9.756  0.126E+00  0.420E-01  0.420E-01  0.420E-01
   9.766  0.121E+00  0.405E-01  0.405E-01  0.405E-01
   9.776  0.117E+00  0.389E-01  0.389E-01  0.389E-01
   9.786  0.112E+00  0.372E-01  0.372E-01  0.372E-01
   9.796  0.106E+00  0.354E-01  0.354E-01  0.354E-01
   9.806  0.101E+00  0.336E-01  0.336E-01  0.336E-01
   9.816  0.953E-01  0.318E-01  0.318E-01  0.318E-01
   9.826  0.898E-01  0.299E-01  0.299E-01  0.299E-01
   9.836  0.845E-01  0.282E-01  0.282E-01  0.282E-01
   9.846  0.793E-01  0.264E-01  0.264E-01  0.264E-01
   9.856  0.745E-01  0.248E-01  0.248E-01  0.248E-01
   9.866  0.701E-01  0.234E-01  0.234E-01  0.234E-01
   9.876  0.663E-01  0.221E-01  0.221E-01  0.221E-01
   9.886  0.630E-01  0.210E-01  0.210E-01  0.210E-01
   9.896  0.605E-01  0.202E-01  0.202E-01  0.202E-01
   9.906  0.587E-01  0.196E-01  0.196E-01  0.196E-01
   9.916  0.576E-01  0.192E-01  0.192E-01  0.192E-01
   9.926  0.573E-01  0.191E-01  0.191E-01  0.191E-01
   9.936  0.578E-01  0.193E-01  0.193E-01  0.193E-01
   9.946  0.592E-01  0.197E-01  0.197E-01  0.197E-01
   9.956  0.613E-01  0.204E-01  0.204E-01  0.204E-01
   9.966  0.643E-01  0.214E-01  0.214E-01  0.214E-01
   9.976  0.682E-01  0.227E-01  0.227E-01  0.227E-01
   9.986  0.728E-01  0.243E-01  0.243E-01  0.243E-01
   9.996  0.784E-01  0.261E-01  0.261E-01  0.261E-01
  10.006  0.849E-01  0.283E-01  0.283E-01  0.283E-01
  10.016  0.922E-01  0.307E-01  0.307E-01  0.307E-01
  10.026  0.100E+00  0.335E-01  0.335E-01  0.335E-01
  10.036  0.110E+00  0.365E-01  0.365E-01  0.365E-01
  10.046  0.120E+00  0.399E-01  0.399E-01  0.399E-01
  10.056  0.130E+00  0.435E-01  0.435E-01  0.435E-01
  10.066  0.142E+00  0.473E-01  0.473E-01  0.473E-01
  10.076  0.154E+00  0.513E-01  0.513E-01  0.513E-01
  10.086  0.166E+00  0.554E-01  0.554E-01  0.554E-01
  10.096  0.179E+00  0.596E-01  0.596E-01  0.596E-01
  10.106  0.191E+00  0.638E-01  0.638E-01  0.638E-01
  10.116  0.203E+00  0.678E-01  0.678E-01  0.678E-01
  10.126  0.215E+00  0.715E-01  0.715E-01  0.715E-01
  10.136  0.225E+00  0.749E-01  0.749E-01  0.749E-01
  10.146  0.234E+00  0.779E-01  0.779E-01  0.779E-01
  10.156  0.241E+00  0.803E-01  0.803E-01  0.803E-01
  10.166  0.246E+00  0.820E-01  0.820E-01  0.820E-01
  10.176  0.249E+00  0.831E-01  0.831E-01  0.831E-01
  10.186  0.250E+00  0.834E-01  0.834E-01  0.834E-01
  10.196  0.249E+00  0.829E-01  0.829E-01  0.829E-01
  10.206  0.245E+00  0.817E-01  0.817E-01  0.817E-01
  10.216  0.239E+00  0.797E-01  0.797E-01  0.797E-01
  10.226  0.231E+00  0.771E-01  0.771E-01  0.771E-01
  10.236  0.222E+00  0.739E-01  0.739E-01  0.739E-01
  10.246  0.210E+00  0.701E-01  0.701E-01  0.701E-01
  10.256  0.198E+00  0.660E-01  0.660E-01  0.660E-01
  10.266  0.185E+00  0.615E-01  0.615E-01  0.615E-01
  10.276  0.171E+00  0.570E-01  0.570E-01  0.570E-01
  10.286  0.157E+00  0.523E-01  0.523E-01  0.523E-01
  10.296  0.143E+00  0.478E-01  0.478E-01  0.478E-01
  10.306  0.130E+00  0.435E-01  0.435E-01  0.435E-01
  10.316  0.118E+00  0.394E-01  0.394E-01  0.394E-01
  10.326  0.107E+00  0.356E-01  0.356E-01  0.356E-01
  10.336  0.966E-01  0.322E-01  0.322E-01  0.322E-01
  10.346  0.878E-01  0.293E-01  0.293E-01  0.293E-01
  10.356  0.802E-01  0.267E-01  0.267E-01  0.267E-01
  10.366  0.739E-01  0.246E-01  0.246E-01  0.246E-01
  10.376  0.689E-01  0.230E-01  0.230E-01  0.230E-01
  10.386  0.652E-01  0.217E-01  0.217E-01  0.217E-01
  10.396  0.625E-01  0.208E-01  0.208E-01  0.208E-01
  10.406  0.609E-01  0.203E-01  0.203E-01  0.203E-01
  10.416  0.601E-01  0.200E-01  0.200E-01  0.200E-01
  10.426  0.602E-01  0.201E-01  0.201E-01  0.201E-01
  10.436  0.610E-01  0.203E-01  0.203E-01  0.203E-01
  10.446  0.624E-01  0.208E-01  0.208E-01  0.208E-01
  10.456  0.644E-01  0.215E-01  0.215E-01  0.215E-01
  10.466  0.668E-01  0.223E-01  0.223E-01  0.223E-01
  10.476  0.697E-01  0.232E-01  0.232E-01  0.232E-01
  10.486  0.729E-01  0.243E-01  0.243E-01  0.243E-01
  10.496  0.766E-01  0.255E-01  0.255E-01  0.255E-01
  10.506  0.806E-01  0.269E-01  0.269E-01  0.269E-01
  10.516  0.849E-01  0.283E-01  0.283E-01  0.283E-01
  10.526  0.895E-01  0.298E-01  0.298E-01  0.298E-01
  10.536  0.944E-01  0.315E-01  0.315E-01  0.315E-01
  10.546  0.994E-01  0.331E-01  0.331E-01  0.331E-01
  10.556  0.105E+00  0.349E-01  0.349E-01  0.349E-01
  10.566  0.110E+00  0.366E-01  0.366E-01  0.366E-01
  10.576  0.115E+00  0.384E-01  0.384E-01  0.384E-01
  10.586  0.120E+00  0.401E-01  0.401E-01  0.401E-01
  10.596  0.125E+00  0.417E-01  0.417E-01  0.417E-01
  10.606  0.130E+00  0.433E-01  0.433E-01  0.433E-01
  10.616  0.134E+00  0.447E-01  0.447E-01  0.447E-01
  10.626  0.138E+00  0.460E-01  0.460E-01  0.460E-01
  10.636  0.142E+00  0.472E-01  0.472E-01  0.472E-01
  10.646  0.145E+00  0.482E-01  0.482E-01  0.482E-01
  10.656  0.147E+00  0.491E-01  0.491E-01  0.491E-01
  10.666  0.150E+00  0.499E-01  0.499E-01  0.499E-01
  10.676  0.152E+00  0.506E-01  0.506E-01  0.506E-01
  10.686  0.153E+00  0.512E-01  0.512E-01  0.512E-01
  10.696  0.155E+00  0.517E-01  0.517E-01  0.517E-01
  10.706  0.157E+00  0.522E-01  0.522E-01  0.522E-01
  10.716  0.158E+00  0.527E-01  0.527E-01  0.527E-01
  10.726  0.160E+00  0.532E-01  0.532E-01  0.532E-01
  10.736  0.161E+00  0.538E-01  0.538E-01  0.538E-01
  10.746  0.163E+00  0.543E-01  0.543E-01  0.543E-01
  10.756  0.165E+00  0.549E-01  0.549E-01  0.549E-01
  10.766  0.167E+00  0.555E-01  0.555E-01  0.555E-01
  10.776  0.168E+00  0.561E-01  0.561E-01  0.561E-01
  10.786  0.170E+00  0.567E-01  0.567E-01  0.567E-01
  10.796  0.171E+00  0.572E-01  0.572E-01  0.572E-01
  10.806  0.172E+00  0.575E-01  0.575E-01  0.575E-01
  10.816  0.173E+00  0.577E-01  0.577E-01  0.577E-01
  10.826  0.173E+00  0.576E-01  0.576E-01  0.576E-01
  10.836  0.172E+00  0.574E-01  0.574E-01  0.574E-01
  10.846  0.170E+00  0.568E-01  0.568E-01  0.568E-01
  10.856  0.168E+00  0.560E-01  0.560E-01  0.560E-01
  10.866  0.165E+00  0.549E-01  0.549E-01  0.549E-01
  10.876  0.161E+00  0.536E-01  0.536E-01  0.536E-01
  10.886  0.156E+00  0.521E-01  0.521E-01  0.521E-01
  10.896  0.151E+00  0.503E-01  0.503E-01  0.503E-01
  10.906  0.145E+00  0.485E-01  0.485E-01  0.485E-01
  10.916  0.140E+00  0.465E-01  0.465E-01  0.465E-01
  10.926  0.134E+00  0.445E-01  0.445E-01  0.445E-01
  10.936  0.128E+00  0.426E-01  0.426E-01  0.426E-01
  10.946  0.122E+00  0.408E-01  0.408E-01  0.408E-01
  10.956  0.117E+00  0.391E-01  0.391E-01  0.391E-01
  10.966  0.113E+00  0.377E-01  0.377E-01  0.377E-01
  10.976  0.109E+00  0.364E-01  0.364E-01  0.364E-01
  10.986  0.106E+00  0.354E-01  0.354E-01  0.354E-01
  10.996  0.104E+00  0.346E-01  0.346E-01  0.346E-01
  11.006  0.102E+00  0.340E-01  0.340E-01  0.340E-01
  11.016  0.101E+00  0.336E-01  0.336E-01  0.336E-01
  11.026  0.100E+00  0.334E-01  0.334E-01  0.334E-01
  11.036  0.998E-01  0.333E-01  0.333E-01  0.333E-01
  11.046  0.996E-01  0.332E-01  0.332E-01  0.332E-01
  11.056  0.995E-01  0.332E-01  0.332E-01  0.332E-01
  11.066  0.992E-01  0.331E-01  0.331E-01  0.331E-01
  11.076  0.986E-01  0.329E-01  0.329E-01  0.329E-01
  11.086  0.977E-01  0.326E-01  0.326E-01  0.326E-01
  11.096  0.963E-01  0.321E-01  0.321E-01  0.321E-01
  11.106  0.944E-01  0.315E-01  0.315E-01  0.315E-01
  11.116  0.920E-01  0.307E-01  0.307E-01  0.307E-01
  11.126  0.890E-01  0.297E-01  0.297E-01  0.297E-01
  11.136  0.857E-01  0.286E-01  0.286E-01  0.286E-01
  11.146  0.821E-01  0.274E-01  0.274E-01  0.274E-01
  11.156  0.782E-01  0.261E-01  0.261E-01  0.261E-01
  11.166  0.743E-01  0.248E-01  0.248E-01  0.248E-01
  11.176  0.704E-01  0.235E-01  0.235E-01  0.235E-01
  11.186  0.668E-01  0.223E-01  0.223E-01  0.223E-01
  11.196  0.636E-01  0.212E-01  0.212E-01  0.212E-01
  11.206  0.610E-01  0.203E-01  0.203E-01  0.203E-01
  11.216  0.590E-01  0.197E-01  0.197E-01  0.197E-01
  11.226  0.579E-01  0.193E-01  0.193E-01  0.193E-01
  11.236  0.576E-01  0.192E-01  0.192E-01  0.192E-01
  11.246  0.583E-01  0.194E-01  0.194E-01  0.194E-01
  11.256  0.600E-01  0.200E-01  0.200E-01  0.200E-01
  11.266  0.627E-01  0.209E-01  0.209E-01  0.209E-01
  11.276  0.664E-01  0.221E-01  0.221E-01  0.221E-01
  11.286  0.710E-01  0.237E-01  0.237E-01  0.237E-01
  11.296  0.764E-01  0.255E-01  0.255E-01  0.255E-01
  11.306  0.826E-01  0.275E-01  0.275E-01  0.275E-01
  11.316  0.894E-01  0.298E-01  0.298E-01  0.298E-01
  11.326  0.968E-01  0.323E-01  0.323E-01  0.323E-01
  11.336  0.105E+00  0.349E-01  0.349E-01  0.349E-01
  11.346  0.113E+00  0.376E-01  0.376E-01  0.376E-01
  11.356  0.121E+00  0.403E-01  0.403E-01  0.403E-01
  11.366  0.129E+00  0.431E-01  0.431E-01  0.431E-01
  11.376  0.138E+00  0.459E-01  0.459E-01  0.459E-01
  11.386  0.146E+00  0.486E-01  0.486E-01  0.486E-01
  11.396  0.154E+00  0.513E-01  0.513E-01  0.513E-01
  11.406  0.162E+00  0.539E-01  0.539E-01  0.539E-01
  11.416  0.169E+00  0.564E-01  0.564E-01  0.564E-01
  11.426  0.176E+00  0.588E-01  0.588E-01  0.588E-01
  11.436  0.183E+00  0.611E-01  0.611E-01  0.611E-01
  11.446  0.190E+00  0.633E-01  0.633E-01  0.633E-01
  11.456  0.196E+00  0.654E-01  0.654E-01  0.654E-01
  11.466  0.202E+00  0.673E-01  0.673E-01  0.673E-01
  11.476  0.207E+00  0.691E-01  0.691E-01  0.691E-01
  11.486  0.212E+00  0.706E-01  0.706E-01  0.706E-01
  11.496  0.216E+00  0.720E-01  0.720E-01  0.720E-01
  11.506  0.219E+00  0.731E-01  0.731E-01  0.731E-01
  11.516  0.222E+00  0.739E-01  0.739E-01  0.739E-01
  11.526  0.223E+00  0.744E-01  0.744E-01  0.744E-01
  11.536  0.224E+00  0.745E-01  0.745E-01  0.745E-01
  11.546  0.223E+00  0.743E-01  0.743E-01  0.743E-01
  11.556  0.221E+00  0.736E-01  0.736E-01  0.736E-01
  11.566  0.217E+00  0.725E-01  0.725E-01  0.725E-01
  11.576  0.213E+00  0.709E-01  0.709E-01  0.709E-01
  11.586  0.207E+00  0.689E-01  0.689E-01  0.689E-01
  11.596  0.199E+00  0.664E-01  0.664E-01  0.664E-01
  11.606  0.191E+00  0.635E-01  0.635E-01  0.635E-01
  11.616  0.181E+00  0.603E-01  0.603E-01  0.603E-01
  11.626  0.170E+00  0.567E-01  0.567E-01  0.567E-01
  11.636  0.159E+00  0.529E-01  0.529E-01  0.529E-01
  11.646  0.147E+00  0.489E-01  0.489E-01  0.489E-01
  11.656  0.134E+00  0.448E-01  0.448E-01  0.448E-01
  11.666  0.122E+00  0.407E-01  0.407E-01  0.407E-01
  11.676  0.110E+00  0.365E-01  0.365E-01  0.365E-01
  11.686  0.976E-01  0.325E-01  0.325E-01  0.325E-01
  11.696  0.861E-01  0.287E-01  0.287E-01  0.287E-01
  11.706  0.751E-01  0.250E-01  0.250E-01  0.250E-01
  11.716  0.650E-01  0.217E-01  0.217E-01  0.217E-01
  11.726  0.556E-01  0.185E-01  0.185E-01  0.185E-01
  11.736  0.472E-01  0.157E-01  0.157E-01  0.157E-01
  11.746  0.397E-01  0.132E-01  0.132E-01  0.132E-01
  11.756  0.332E-01  0.111E-01  0.111E-01  0.111E-01
  11.766  0.275E-01  0.917E-02  0.917E-02  0.917E-02
  11.776  0.228E-01  0.760E-02  0.760E-02  0.760E-02
  11.786  0.189E-01  0.631E-02  0.631E-02  0.631E-02
  11.796  0.159E-01  0.529E-02  0.529E-02  0.529E-02
  11.806  0.136E-01  0.454E-02  0.454E-02  0.454E-02
  11.816  0.121E-01  0.404E-02  0.404E-02  0.404E-02
  11.826  0.113E-01  0.377E-02  0.377E-02  0.377E-02
  11.836  0.112E-01  0.374E-02  0.374E-02  0.374E-02
  11.846  0.118E-01  0.395E-02  0.395E-02  0.395E-02
  11.856  0.132E-01  0.438E-02  0.438E-02  0.438E-02
  11.866  0.152E-01  0.506E-02  0.506E-02  0.506E-02
  11.876  0.180E-01  0.599E-02  0.599E-02  0.599E-02
  11.886  0.215E-01  0.718E-02  0.718E-02  0.718E-02
  11.896  0.259E-01  0.863E-02  0.863E-02  0.863E-02
  11.906  0.311E-01  0.104E-01  0.104E-01  0.104E-01
  11.916  0.371E-01  0.124E-01  0.124E-01  0.124E-01
  11.926  0.440E-01  0.147E-01  0.147E-01  0.147E-01
  11.936  0.518E-01  0.173E-01  0.173E-01  0.173E-01
  11.946  0.603E-01  0.201E-01  0.201E-01  0.201E-01
  11.956  0.696E-01  0.232E-01  0.232E-01  0.232E-01
  11.966  0.795E-01  0.265E-01  0.265E-01  0.265E-01
  11.976  0.899E-01  0.300E-01  0.300E-01  0.300E-01
  11.986  0.101E+00  0.335E-01  0.335E-01  0.335E-01
  11.996  0.112E+00  0.372E-01  0.372E-01  0.372E-01
  12.006  0.122E+00  0.408E-01  0.408E-01  0.408E-01
  12.016  0.133E+00  0.443E-01  0.443E-01  0.443E-01
  12.026  0.143E+00  0.477E-01  0.477E-01  0.477E-01
  12.036  0.152E+00  0.508E-01  0.508E-01  0.508E-01
  12.046  0.161E+00  0.536E-01  0.536E-01  0.536E-01
  12.056  0.168E+00  0.560E-01  0.560E-01  0.560E-01
  12.066  0.174E+00  0.580E-01  0.580E-01  0.580E-01
  12.076  0.179E+00  0.595E-01  0.595E-01  0.595E-01
  12.086  0.182E+00  0.606E-01  0.606E-01  0.606E-01
  12.096  0.184E+00  0.612E-01  0.612E-01  0.612E-01
  12.106  0.184E+00  0.613E-01  0.613E-01  0.613E-01
  12.116  0.183E+00  0.610E-01  0.610E-01  0.610E-01
  12.126  0.181E+00  0.604E-01  0.604E-01  0.604E-01
  12.136  0.178E+00  0.594E-01  0.594E-01  0.594E-01
  12.146  0.175E+00  0.583E-01  0.583E-01  0.583E-01
  12.156  0.171E+00  0.569E-01  0.569E-01  0.569E-01
  12.166  0.167E+00  0.555E-01  0.555E-01  0.555E-01
  12.176  0.162E+00  0.541E-01  0.541E-01  0.541E-01
  12.186  0.158E+00  0.528E-01  0.528E-01  0.528E-01
  12.196  0.155E+00  0.516E-01  0.516E-01  0.516E-01
  12.206  0.152E+00  0.506E-01  0.506E-01  0.506E-01
  12.216  0.149E+00  0.497E-01  0.497E-01  0.497E-01
  12.226  0.147E+00  0.490E-01  0.490E-01  0.490E-01
  12.236  0.146E+00  0.485E-01  0.485E-01  0.485E-01
  12.246  0.144E+00  0.481E-01  0.481E-01  0.481E-01
  12.256  0.144E+00  0.478E-01  0.478E-01  0.478E-01
  12.266  0.143E+00  0.476E-01  0.476E-01  0.476E-01
  12.276  0.142E+00  0.473E-01  0.473E-01  0.473E-01
  12.286  0.141E+00  0.470E-01  0.470E-01  0.470E-01
  12.296  0.140E+00  0.466E-01  0.466E-01  0.466E-01
  12.306  0.138E+00  0.460E-01  0.460E-01  0.460E-01
  12.316  0.136E+00  0.452E-01  0.452E-01  0.452E-01
  12.326  0.132E+00  0.442E-01  0.442E-01  0.442E-01
  12.336  0.129E+00  0.429E-01  0.429E-01  0.429E-01
  12.346  0.124E+00  0.415E-01  0.415E-01  0.415E-01
  12.356  0.120E+00  0.399E-01  0.399E-01  0.399E-01
  12.366  0.114E+00  0.381E-01  0.381E-01  0.381E-01
  12.376  0.109E+00  0.362E-01  0.362E-01  0.362E-01
  12.386  0.103E+00  0.343E-01  0.343E-01  0.343E-01
  12.396  0.972E-01  0.324E-01  0.324E-01  0.324E-01
  12.406  0.917E-01  0.306E-01  0.306E-01  0.306E-01
  12.416  0.866E-01  0.289E-01  0.289E-01  0.289E-01
  12.426  0.821E-01  0.274E-01  0.274E-01  0.274E-01
  12.436  0.784E-01  0.261E-01  0.261E-01  0.261E-01
  12.446  0.754E-01  0.251E-01  0.251E-01  0.251E-01
  12.456  0.733E-01  0.244E-01  0.244E-01  0.244E-01
  12.466  0.721E-01  0.240E-01  0.240E-01  0.240E-01
  12.476  0.718E-01  0.239E-01  0.239E-01  0.239E-01
  12.486  0.723E-01  0.241E-01  0.241E-01  0.241E-01
  12.496  0.737E-01  0.246E-01  0.246E-01  0.246E-01
  12.506  0.757E-01  0.252E-01  0.252E-01  0.252E-01
  12.516  0.782E-01  0.261E-01  0.261E-01  0.261E-01
  12.526  0.811E-01  0.270E-01  0.270E-01  0.270E-01
  12.536  0.843E-01  0.281E-01  0.281E-01  0.281E-01
  12.546  0.875E-01  0.292E-01  0.292E-01  0.292E-01
  12.556  0.907E-01  0.302E-01  0.302E-01  0.302E-01
  12.566  0.937E-01  0.312E-01  0.312E-01  0.312E-01
  12.576  0.965E-01  0.322E-01  0.322E-01  0.322E-01
  12.586  0.989E-01  0.330E-01  0.330E-01  0.330E-01
  12.596  0.101E+00  0.336E-01  0.336E-01  0.336E-01
  12.606  0.102E+00  0.342E-01  0.342E-01  0.342E-01
  12.616  0.104E+00  0.345E-01  0.345E-01  0.345E-01
  12.626  0.104E+00  0.348E-01  0.348E-01  0.348E-01
  12.636  0.105E+00  0.349E-01  0.349E-01  0.349E-01
  12.646  0.105E+00  0.349E-01  0.349E-01  0.349E-01
  12.656  0.105E+00  0.349E-01  0.349E-01  0.349E-01
  12.666  0.104E+00  0.348E-01  0.348E-01  0.348E-01
  12.676  0.104E+00  0.346E-01  0.346E-01  0.346E-01
  12.686  0.103E+00  0.344E-01  0.344E-01  0.344E-01
  12.696  0.103E+00  0.342E-01  0.342E-01  0.342E-01
  12.706  0.102E+00  0.340E-01  0.340E-01  0.340E-01
  12.716  0.101E+00  0.338E-01  0.338E-01  0.338E-01
  12.726  0.100E+00  0.335E-01  0.335E-01  0.335E-01
  12.736  0.995E-01  0.332E-01  0.332E-01  0.332E-01
  12.746  0.983E-01  0.328E-01  0.328E-01  0.328E-01
  12.756  0.970E-01  0.323E-01  0.323E-01  0.323E-01
  12.766  0.954E-01  0.318E-01  0.318E-01  0.318E-01
  12.776  0.935E-01  0.312E-01  0.312E-01  0.312E-01
  12.786  0.914E-01  0.305E-01  0.305E-01  0.305E-01
  12.796  0.889E-01  0.296E-01  0.296E-01  0.296E-01
  12.806  0.862E-01  0.287E-01  0.287E-01  0.287E-01
  12.816  0.833E-01  0.278E-01  0.278E-01  0.278E-01
  12.826  0.802E-01  0.267E-01  0.267E-01  0.267E-01
  12.836  0.770E-01  0.257E-01  0.257E-01  0.257E-01
  12.846  0.739E-01  0.246E-01  0.246E-01  0.246E-01
  12.856  0.709E-01  0.236E-01  0.236E-01  0.236E-01
  12.866  0.683E-01  0.228E-01  0.228E-01  0.228E-01
  12.876  0.661E-01  0.220E-01  0.220E-01  0.220E-01
  12.886  0.644E-01  0.215E-01  0.215E-01  0.215E-01
  12.896  0.635E-01  0.212E-01  0.212E-01  0.212E-01
  12.906  0.634E-01  0.211E-01  0.211E-01  0.211E-01
  12.916  0.642E-01  0.214E-01  0.214E-01  0.214E-01
  12.926  0.659E-01  0.220E-01  0.220E-01  0.220E-01
  12.936  0.686E-01  0.229E-01  0.229E-01  0.229E-01
  12.946  0.724E-01  0.241E-01  0.241E-01  0.241E-01
  12.956  0.771E-01  0.257E-01  0.257E-01  0.257E-01
  12.966  0.827E-01  0.276E-01  0.276E-01  0.276E-01
  12.976  0.891E-01  0.297E-01  0.297E-01  0.297E-01
  12.986  0.961E-01  0.320E-01  0.320E-01  0.320E-01
  12.996  0.104E+00  0.345E-01  0.345E-01  0.345E-01
  13.006  0.111E+00  0.371E-01  0.371E-01  0.371E-01
  13.016  0.119E+00  0.397E-01  0.397E-01  0.397E-01
  13.026  0.127E+00  0.423E-01  0.423E-01  0.423E-01
  13.036  0.134E+00  0.447E-01  0.447E-01  0.447E-01
  13.046  0.141E+00  0.470E-01  0.470E-01  0.470E-01
  13.056  0.147E+00  0.490E-01  0.490E-01  0.490E-01
  13.066  0.152E+00  0.507E-01  0.507E-01  0.507E-01
  13.076  0.156E+00  0.520E-01  0.520E-01  0.520E-01
  13.086  0.159E+00  0.530E-01  0.530E-01  0.530E-01
  13.096  0.161E+00  0.535E-01  0.535E-01  0.535E-01
  13.106  0.161E+00  0.537E-01  0.537E-01  0.537E-01
  13.116  0.160E+00  0.534E-01  0.534E-01  0.534E-01
  13.126  0.158E+00  0.528E-01  0.528E-01  0.528E-01
  13.136  0.155E+00  0.518E-01  0.518E-01  0.518E-01
  13.146  0.151E+00  0.505E-01  0.505E-01  0.505E-01
  13.156  0.147E+00  0.489E-01  0.489E-01  0.489E-01
  13.166  0.141E+00  0.471E-01  0.471E-01  0.471E-01
  13.176  0.135E+00  0.451E-01  0.451E-01  0.451E-01
  13.186  0.129E+00  0.431E-01  0.431E-01  0.431E-01
  13.196  0.123E+00  0.409E-01  0.409E-01  0.409E-01
  13.206  0.116E+00  0.388E-01  0.388E-01  0.388E-01
  13.216  0.110E+00  0.367E-01  0.367E-01  0.367E-01
  13.226  0.104E+00  0.347E-01  0.347E-01  0.347E-01
  13.236  0.986E-01  0.329E-01  0.329E-01  0.329E-01
  13.246  0.935E-01  0.312E-01  0.312E-01  0.312E-01
  13.256  0.892E-01  0.297E-01  0.297E-01  0.297E-01
  13.266  0.856E-01  0.285E-01  0.285E-01  0.285E-01
  13.276  0.830E-01  0.277E-01  0.277E-01  0.277E-01
  13.286  0.814E-01  0.271E-01  0.271E-01  0.271E-01
  13.296  0.811E-01  0.270E-01  0.270E-01  0.270E-01
  13.306  0.823E-01  0.274E-01  0.274E-01  0.274E-01
  13.316  0.852E-01  0.284E-01  0.284E-01  0.284E-01
  13.326  0.899E-01  0.300E-01  0.300E-01  0.300E-01
  13.336  0.968E-01  0.323E-01  0.323E-01  0.323E-01
  13.346  0.106E+00  0.354E-01  0.354E-01  0.354E-01
  13.356  0.118E+00  0.393E-01  0.393E-01  0.393E-01
  13.366  0.133E+00  0.443E-01  0.443E-01  0.443E-01
  13.376  0.151E+00  0.502E-01  0.502E-01  0.502E-01
  13.386  0.172E+00  0.573E-01  0.573E-01  0.573E-01
  13.396  0.196E+00  0.654E-01  0.654E-01  0.654E-01
  13.406  0.224E+00  0.747E-01  0.747E-01  0.747E-01
  13.416  0.255E+00  0.851E-01  0.851E-01  0.851E-01
  13.426  0.290E+00  0.966E-01  0.966E-01  0.966E-01
  13.436  0.327E+00  0.109E+00  0.109E+00  0.109E+00
  13.446  0.367E+00  0.122E+00  0.122E+00  0.122E+00
  13.456  0.409E+00  0.136E+00  0.136E+00  0.136E+00
  13.466  0.453E+00  0.151E+00  0.151E+00  0.151E+00
  13.476  0.498E+00  0.166E+00  0.166E+00  0.166E+00
  13.486  0.543E+00  0.181E+00  0.181E+00  0.181E+00
  13.496  0.588E+00  0.196E+00  0.196E+00  0.196E+00
  13.506  0.632E+00  0.211E+00  0.211E+00  0.211E+00
  13.516  0.674E+00  0.225E+00  0.225E+00  0.225E+00
  13.526  0.713E+00  0.238E+00  0.238E+00  0.238E+00
  13.536  0.750E+00  0.250E+00  0.250E+00  0.250E+00
  13.546  0.782E+00  0.261E+00  0.261E+00  0.261E+00
  13.556  0.811E+00  0.270E+00  0.270E+00  0.270E+00
  13.566  0.835E+00  0.278E+00  0.278E+00  0.278E+00
  13.576  0.855E+00  0.285E+00  0.285E+00  0.285E+00
  13.586  0.869E+00  0.290E+00  0.290E+00  0.290E+00
  13.596  0.879E+00  0.293E+00  0.293E+00  0.293E+00
  13.606  0.885E+00  0.295E+00  0.295E+00  0.295E+00
  13.616  0.886E+00  0.295E+00  0.295E+00  0.295E+00
  13.626  0.883E+00  0.294E+00  0.294E+00  0.294E+00
  13.636  0.877E+00  0.292E+00  0.292E+00  0.292E+00
  13.646  0.868E+00  0.289E+00  0.289E+00  0.289E+00
  13.656  0.857E+00  0.286E+00  0.286E+00  0.286E+00
  13.666  0.844E+00  0.281E+00  0.281E+00  0.281E+00
  13.676  0.830E+00  0.277E+00  0.277E+00  0.277E+00
  13.686  0.814E+00  0.271E+00  0.271E+00  0.271E+00
  13.696  0.799E+00  0.266E+00  0.266E+00  0.266E+00
  13.706  0.784E+00  0.261E+00  0.261E+00  0.261E+00
  13.716  0.769E+00  0.256E+00  0.256E+00  0.256E+00
  13.726  0.755E+00  0.252E+00  0.252E+00  0.252E+00
  13.736  0.742E+00  0.247E+00  0.247E+00  0.247E+00
  13.746  0.731E+00  0.244E+00  0.244E+00  0.244E+00
  13.756  0.720E+00  0.240E+00  0.240E+00  0.240E+00
  13.766  0.710E+00  0.237E+00  0.237E+00  0.237E+00
  13.776  0.702E+00  0.234E+00  0.234E+00  0.234E+00
  13.786  0.694E+00  0.231E+00  0.231E+00  0.231E+00
  13.796  0.687E+00  0.229E+00  0.229E+00  0.229E+00
  13.806  0.681E+00  0.227E+00  0.227E+00  0.227E+00
  13.816  0.675E+00  0.225E+00  0.225E+00  0.225E+00
  13.826  0.669E+00  0.223E+00  0.223E+00  0.223E+00
  13.836  0.663E+00  0.221E+00  0.221E+00  0.221E+00
  13.846  0.656E+00  0.219E+00  0.219E+00  0.219E+00
  13.856  0.649E+00  0.216E+00  0.216E+00  0.216E+00
  13.866  0.641E+00  0.214E+00  0.214E+00  0.214E+00
  13.876  0.633E+00  0.211E+00  0.211E+00  0.211E+00
  13.886  0.623E+00  0.208E+00  0.208E+00  0.208E+00
  13.896  0.613E+00  0.204E+00  0.204E+00  0.204E+00
  13.906  0.601E+00  0.200E+00  0.200E+00  0.200E+00
  13.916  0.589E+00  0.196E+00  0.196E+00  0.196E+00
  13.926  0.576E+00  0.192E+00  0.192E+00  0.192E+00
  13.936  0.562E+00  0.187E+00  0.187E+00  0.187E+00
  13.946  0.547E+00  0.182E+00  0.182E+00  0.182E+00
  13.956  0.532E+00  0.177E+00  0.177E+00  0.177E+00
  13.966  0.517E+00  0.172E+00  0.172E+00  0.172E+00
  13.976  0.501E+00  0.167E+00  0.167E+00  0.167E+00
  13.986  0.486E+00  0.162E+00  0.162E+00  0.162E+00
  13.996  0.471E+00  0.157E+00  0.157E+00  0.157E+00
  14.006  0.457E+00  0.152E+00  0.152E+00  0.152E+00
  14.016  0.444E+00  0.148E+00  0.148E+00  0.148E+00
  14.026  0.431E+00  0.144E+00  0.144E+00  0.144E+00
  14.036  0.421E+00  0.140E+00  0.140E+00  0.140E+00
  14.046  0.411E+00  0.137E+00  0.137E+00  0.137E+00
  14.056  0.404E+00  0.135E+00  0.135E+00  0.135E+00
  14.066  0.398E+00  0.133E+00  0.133E+00  0.133E+00
  14.076  0.394E+00  0.131E+00  0.131E+00  0.131E+00
  14.086  0.392E+00  0.131E+00  0.131E+00  0.131E+00
  14.096  0.391E+00  0.130E+00  0.130E+00  0.130E+00
  14.106  0.393E+00  0.131E+00  0.131E+00  0.131E+00
  14.116  0.396E+00  0.132E+00  0.132E+00  0.132E+00
  14.126  0.401E+00  0.134E+00  0.134E+00  0.134E+00
  14.136  0.407E+00  0.136E+00  0.136E+00  0.136E+00
  14.146  0.414E+00  0.138E+00  0.138E+00  0.138E+00
  14.156  0.422E+00  0.141E+00  0.141E+00  0.141E+00
  14.166  0.431E+00  0.144E+00  0.144E+00  0.144E+00
  14.176  0.440E+00  0.147E+00  0.147E+00  0.147E+00
  14.186  0.450E+00  0.150E+00  0.150E+00  0.150E+00
  14.196  0.459E+00  0.153E+00  0.153E+00  0.153E+00
  14.206  0.468E+00  0.156E+00  0.156E+00  0.156E+00
  14.216  0.477E+00  0.159E+00  0.159E+00  0.159E+00
  14.226  0.485E+00  0.162E+00  0.162E+00  0.162E+00
  14.236  0.493E+00  0.164E+00  0.164E+00  0.164E+00
  14.246  0.500E+00  0.167E+00  0.167E+00  0.167E+00
  14.256  0.507E+00  0.169E+00  0.169E+00  0.169E+00
  14.266  0.514E+00  0.171E+00  0.171E+00  0.171E+00
  14.276  0.520E+00  0.173E+00  0.173E+00  0.173E+00
  14.286  0.526E+00  0.175E+00  0.175E+00  0.175E+00
  14.296  0.532E+00  0.177E+00  0.177E+00  0.177E+00
  14.306  0.538E+00  0.179E+00  0.179E+00  0.179E+00
  14.316  0.544E+00  0.181E+00  0.181E+00  0.181E+00
  14.326  0.550E+00  0.183E+00  0.183E+00  0.183E+00
  14.336  0.556E+00  0.185E+00  0.185E+00  0.185E+00
  14.346  0.562E+00  0.187E+00  0.187E+00  0.187E+00
  14.356  0.567E+00  0.189E+00  0.189E+00  0.189E+00
  14.366  0.572E+00  0.191E+00  0.191E+00  0.191E+00
  14.376  0.577E+00  0.192E+00  0.192E+00  0.192E+00
  14.386  0.580E+00  0.193E+00  0.193E+00  0.193E+00
  14.396  0.583E+00  0.194E+00  0.194E+00  0.194E+00
  14.406  0.585E+00  0.195E+00  0.195E+00  0.195E+00
  14.416  0.586E+00  0.195E+00  0.195E+00  0.195E+00
  14.426  0.585E+00  0.195E+00  0.195E+00  0.195E+00
  14.436  0.583E+00  0.194E+00  0.194E+00  0.194E+00
  14.446  0.580E+00  0.193E+00  0.193E+00  0.193E+00
  14.456  0.576E+00  0.192E+00  0.192E+00  0.192E+00
  14.466  0.571E+00  0.190E+00  0.190E+00  0.190E+00
  14.476  0.565E+00  0.188E+00  0.188E+00  0.188E+00
  14.486  0.558E+00  0.186E+00  0.186E+00  0.186E+00
  14.496  0.550E+00  0.183E+00  0.183E+00  0.183E+00
  14.506  0.542E+00  0.181E+00  0.181E+00  0.181E+00
  14.516  0.533E+00  0.178E+00  0.178E+00  0.178E+00
  14.526  0.524E+00  0.175E+00  0.175E+00  0.175E+00
  14.536  0.514E+00  0.171E+00  0.171E+00  0.171E+00
  14.546  0.504E+00  0.168E+00  0.168E+00  0.168E+00
  14.556  0.494E+00  0.165E+00  0.165E+00  0.165E+00
  14.566  0.484E+00  0.161E+00  0.161E+00  0.161E+00
  14.576  0.474E+00  0.158E+00  0.158E+00  0.158E+00
  14.586  0.464E+00  0.155E+00  0.155E+00  0.155E+00
  14.596  0.455E+00  0.152E+00  0.152E+00  0.152E+00
  14.606  0.445E+00  0.148E+00  0.148E+00  0.148E+00
  14.616  0.436E+00  0.145E+00  0.145E+00  0.145E+00
  14.626  0.428E+00  0.143E+00  0.143E+00  0.143E+00
  14.636  0.421E+00  0.140E+00  0.140E+00  0.140E+00
  14.646  0.414E+00  0.138E+00  0.138E+00  0.138E+00
  14.656  0.408E+00  0.136E+00  0.136E+00  0.136E+00
  14.666  0.403E+00  0.134E+00  0.134E+00  0.134E+00
  14.676  0.399E+00  0.133E+00  0.133E+00  0.133E+00
  14.686  0.396E+00  0.132E+00  0.132E+00  0.132E+00
  14.696  0.394E+00  0.131E+00  0.131E+00  0.131E+00
  14.706  0.393E+00  0.131E+00  0.131E+00  0.131E+00
  14.716  0.392E+00  0.131E+00  0.131E+00  0.131E+00
  14.726  0.392E+00  0.131E+00  0.131E+00  0.131E+00
  14.736  0.393E+00  0.131E+00  0.131E+00  0.131E+00
  14.746  0.393E+00  0.131E+00  0.131E+00  0.131E+00
  14.756  0.394E+00  0.131E+00  0.131E+00  0.131E+00
  14.766  0.394E+00  0.131E+00  0.131E+00  0.131E+00
  14.776  0.394E+00  0.131E+00  0.131E+00  0.131E+00
  14.786  0.393E+00  0.131E+00  0.131E+00  0.131E+00
  14.796  0.392E+00  0.131E+00  0.131E+00  0.131E+00
  14.806  0.390E+00  0.130E+00  0.130E+00  0.130E+00
  14.816  0.388E+00  0.129E+00  0.129E+00  0.129E+00
  14.826  0.385E+00  0.128E+00  0.128E+00  0.128E+00
  14.836  0.382E+00  0.127E+00  0.127E+00  0.127E+00
  14.846  0.379E+00  0.126E+00  0.126E+00  0.126E+00
  14.856  0.375E+00  0.125E+00  0.125E+00  0.125E+00
  14.866  0.371E+00  0.124E+00  0.124E+00  0.124E+00
  14.876  0.367E+00  0.122E+00  0.122E+00  0.122E+00
  14.886  0.363E+00  0.121E+00  0.121E+00  0.121E+00
  14.896  0.359E+00  0.120E+00  0.120E+00  0.120E+00
  14.906  0.354E+00  0.118E+00  0.118E+00  0.118E+00
  14.916  0.350E+00  0.117E+00  0.117E+00  0.117E+00
  14.926  0.346E+00  0.115E+00  0.115E+00  0.115E+00
  14.936  0.341E+00  0.114E+00  0.114E+00  0.114E+00
  14.946  0.336E+00  0.112E+00  0.112E+00  0.112E+00
  14.956  0.331E+00  0.110E+00  0.110E+00  0.110E+00
  14.966  0.326E+00  0.109E+00  0.109E+00  0.109E+00
  14.976  0.320E+00  0.107E+00  0.107E+00  0.107E+00
  14.986  0.314E+00  0.105E+00  0.105E+00  0.105E+00
  14.996  0.308E+00  0.103E+00  0.103E+00  0.103E+00
  15.006  0.301E+00  0.100E+00  0.100E+00  0.100E+00
  15.016  0.295E+00  0.984E-01  0.984E-01  0.984E-01
  15.026  0.289E+00  0.963E-01  0.963E-01  0.963E-01
  15.036  0.283E+00  0.943E-01  0.943E-01  0.943E-01
  15.046  0.277E+00  0.924E-01  0.924E-01  0.924E-01
  15.056  0.272E+00  0.907E-01  0.907E-01  0.907E-01
  15.066  0.267E+00  0.891E-01  0.891E-01  0.891E-01
  15.076  0.263E+00  0.878E-01  0.878E-01  0.878E-01
  15.086  0.260E+00  0.866E-01  0.866E-01  0.866E-01
  15.096  0.257E+00  0.857E-01  0.857E-01  0.857E-01
  15.106  0.255E+00  0.850E-01  0.850E-01  0.850E-01
  15.116  0.254E+00  0.845E-01  0.845E-01  0.845E-01
  15.126  0.252E+00  0.842E-01  0.842E-01  0.842E-01
  15.136  0.252E+00  0.839E-01  0.839E-01  0.839E-01
  15.146  0.251E+00  0.838E-01  0.838E-01  0.838E-01
  15.156  0.251E+00  0.837E-01  0.837E-01  0.837E-01
  15.166  0.251E+00  0.836E-01  0.836E-01  0.836E-01
  15.176  0.251E+00  0.835E-01  0.835E-01  0.835E-01
  15.186  0.250E+00  0.834E-01  0.834E-01  0.834E-01
  15.196  0.249E+00  0.832E-01  0.832E-01  0.832E-01
  15.206  0.249E+00  0.829E-01  0.829E-01  0.829E-01
  15.216  0.248E+00  0.826E-01  0.826E-01  0.826E-01
  15.226  0.247E+00  0.822E-01  0.822E-01  0.822E-01
  15.236  0.246E+00  0.818E-01  0.818E-01  0.818E-01
  15.246  0.245E+00  0.815E-01  0.815E-01  0.815E-01
  15.256  0.244E+00  0.813E-01  0.813E-01  0.813E-01
  15.266  0.243E+00  0.811E-01  0.811E-01  0.811E-01
  15.276  0.243E+00  0.811E-01  0.811E-01  0.811E-01
  15.286  0.244E+00  0.814E-01  0.814E-01  0.814E-01
  15.296  0.246E+00  0.819E-01  0.819E-01  0.819E-01
  15.306  0.248E+00  0.827E-01  0.827E-01  0.827E-01
  15.316  0.251E+00  0.838E-01  0.838E-01  0.838E-01
  15.326  0.255E+00  0.852E-01  0.852E-01  0.852E-01
  15.336  0.260E+00  0.868E-01  0.868E-01  0.868E-01
  15.346  0.266E+00  0.887E-01  0.887E-01  0.887E-01
  15.356  0.272E+00  0.908E-01  0.908E-01  0.908E-01
  15.366  0.279E+00  0.930E-01  0.930E-01  0.930E-01
  15.376  0.285E+00  0.952E-01  0.952E-01  0.952E-01
  15.386  0.292E+00  0.973E-01  0.973E-01  0.973E-01
  15.396  0.298E+00  0.992E-01  0.992E-01  0.992E-01
  15.406  0.303E+00  0.101E+00  0.101E+00  0.101E+00
  15.416  0.307E+00  0.102E+00  0.102E+00  0.102E+00
  15.426  0.309E+00  0.103E+00  0.103E+00  0.103E+00
  15.436  0.310E+00  0.103E+00  0.103E+00  0.103E+00
  15.446  0.309E+00  0.103E+00  0.103E+00  0.103E+00
  15.456  0.307E+00  0.102E+00  0.102E+00  0.102E+00
  15.466  0.303E+00  0.101E+00  0.101E+00  0.101E+00
  15.476  0.297E+00  0.990E-01  0.990E-01  0.990E-01
  15.486  0.290E+00  0.966E-01  0.966E-01  0.966E-01
  15.496  0.281E+00  0.937E-01  0.937E-01  0.937E-01
  15.506  0.272E+00  0.906E-01  0.906E-01  0.906E-01
  15.516  0.262E+00  0.874E-01  0.874E-01  0.874E-01
  15.526  0.252E+00  0.841E-01  0.841E-01  0.841E-01
  15.536  0.243E+00  0.808E-01  0.808E-01  0.808E-01
  15.546  0.234E+00  0.779E-01  0.779E-01  0.779E-01
  15.556  0.226E+00  0.752E-01  0.752E-01  0.752E-01
  15.566  0.219E+00  0.730E-01  0.730E-01  0.730E-01
  15.576  0.214E+00  0.713E-01  0.713E-01  0.713E-01
  15.586  0.210E+00  0.701E-01  0.701E-01  0.701E-01
  15.596  0.209E+00  0.695E-01  0.695E-01  0.695E-01
  15.606  0.209E+00  0.695E-01  0.695E-01  0.695E-01
  15.616  0.210E+00  0.700E-01  0.700E-01  0.700E-01
  15.626  0.213E+00  0.710E-01  0.710E-01  0.710E-01
  15.636  0.217E+00  0.723E-01  0.723E-01  0.723E-01
  15.646  0.221E+00  0.738E-01  0.738E-01  0.738E-01
  15.656  0.226E+00  0.755E-01  0.755E-01  0.755E-01
  15.666  0.231E+00  0.771E-01  0.771E-01  0.771E-01
  15.676  0.236E+00  0.786E-01  0.786E-01  0.786E-01
  15.686  0.240E+00  0.799E-01  0.799E-01  0.799E-01
  15.696  0.242E+00  0.808E-01  0.808E-01  0.808E-01
  15.706  0.244E+00  0.813E-01  0.813E-01  0.813E-01
  15.716  0.244E+00  0.813E-01  0.813E-01  0.813E-01
  15.726  0.242E+00  0.808E-01  0.808E-01  0.808E-01
  15.736  0.240E+00  0.799E-01  0.799E-01  0.799E-01
  15.746  0.235E+00  0.785E-01  0.785E-01  0.785E-01
  15.756  0.230E+00  0.767E-01  0.767E-01  0.767E-01
  15.766  0.224E+00  0.746E-01  0.746E-01  0.746E-01
  15.776  0.217E+00  0.724E-01  0.724E-01  0.724E-01
  15.786  0.211E+00  0.702E-01  0.702E-01  0.702E-01
  15.796  0.204E+00  0.680E-01  0.680E-01  0.680E-01
  15.806  0.198E+00  0.661E-01  0.661E-01  0.661E-01
  15.816  0.194E+00  0.645E-01  0.645E-01  0.645E-01
  15.826  0.190E+00  0.634E-01  0.634E-01  0.634E-01
  15.836  0.189E+00  0.629E-01  0.629E-01  0.629E-01
  15.846  0.189E+00  0.630E-01  0.630E-01  0.630E-01
  15.856  0.191E+00  0.637E-01  0.637E-01  0.637E-01
  15.866  0.196E+00  0.652E-01  0.652E-01  0.652E-01
  15.876  0.202E+00  0.673E-01  0.673E-01  0.673E-01
  15.886  0.210E+00  0.700E-01  0.700E-01  0.700E-01
  15.896  0.220E+00  0.733E-01  0.733E-01  0.733E-01
  15.906  0.231E+00  0.770E-01  0.770E-01  0.770E-01
  15.916  0.243E+00  0.810E-01  0.810E-01  0.810E-01
  15.926  0.256E+00  0.852E-01  0.852E-01  0.852E-01
  15.936  0.268E+00  0.895E-01  0.895E-01  0.895E-01
  15.946  0.281E+00  0.936E-01  0.936E-01  0.936E-01
  15.956  0.293E+00  0.975E-01  0.975E-01  0.975E-01
  15.966  0.303E+00  0.101E+00  0.101E+00  0.101E+00
  15.976  0.312E+00  0.104E+00  0.104E+00  0.104E+00
  15.986  0.320E+00  0.107E+00  0.107E+00  0.107E+00
  15.996  0.325E+00  0.108E+00  0.108E+00  0.108E+00
  16.006  0.328E+00  0.109E+00  0.109E+00  0.109E+00
  16.016  0.329E+00  0.110E+00  0.110E+00  0.110E+00
  16.026  0.328E+00  0.109E+00  0.109E+00  0.109E+00
  16.036  0.325E+00  0.108E+00  0.108E+00  0.108E+00
  16.046  0.321E+00  0.107E+00  0.107E+00  0.107E+00
  16.056  0.315E+00  0.105E+00  0.105E+00  0.105E+00
  16.066  0.308E+00  0.103E+00  0.103E+00  0.103E+00
  16.076  0.301E+00  0.100E+00  0.100E+00  0.100E+00
  16.086  0.293E+00  0.976E-01  0.976E-01  0.976E-01
  16.096  0.285E+00  0.951E-01  0.951E-01  0.951E-01
  16.106  0.278E+00  0.928E-01  0.928E-01  0.928E-01
  16.116  0.272E+00  0.908E-01  0.908E-01  0.908E-01
  16.126  0.268E+00  0.892E-01  0.892E-01  0.892E-01
  16.136  0.264E+00  0.880E-01  0.880E-01  0.880E-01
  16.146  0.262E+00  0.874E-01  0.874E-01  0.874E-01
  16.156  0.262E+00  0.872E-01  0.872E-01  0.872E-01
  16.166  0.263E+00  0.876E-01  0.876E-01  0.876E-01
  16.176  0.266E+00  0.885E-01  0.885E-01  0.885E-01
  16.186  0.270E+00  0.898E-01  0.898E-01  0.898E-01
  16.196  0.275E+00  0.915E-01  0.915E-01  0.915E-01
  16.206  0.280E+00  0.934E-01  0.934E-01  0.934E-01
  16.216  0.287E+00  0.955E-01  0.955E-01  0.955E-01
  16.226  0.293E+00  0.977E-01  0.977E-01  0.977E-01
  16.236  0.299E+00  0.997E-01  0.997E-01  0.997E-01
  16.246  0.305E+00  0.102E+00  0.102E+00  0.102E+00
  16.256  0.310E+00  0.103E+00  0.103E+00  0.103E+00
  16.266  0.314E+00  0.105E+00  0.105E+00  0.105E+00
  16.276  0.316E+00  0.105E+00  0.105E+00  0.105E+00
  16.286  0.317E+00  0.106E+00  0.106E+00  0.106E+00
  16.296  0.316E+00  0.105E+00  0.105E+00  0.105E+00
  16.306  0.314E+00  0.105E+00  0.105E+00  0.105E+00
  16.316  0.310E+00  0.103E+00  0.103E+00  0.103E+00
  16.326  0.305E+00  0.102E+00  0.102E+00  0.102E+00
  16.336  0.298E+00  0.995E-01  0.995E-01  0.995E-01
  16.346  0.291E+00  0.968E-01  0.968E-01  0.968E-01
  16.356  0.282E+00  0.939E-01  0.939E-01  0.939E-01
  16.366  0.272E+00  0.907E-01  0.907E-01  0.907E-01
  16.376  0.262E+00  0.874E-01  0.874E-01  0.874E-01
  16.386  0.252E+00  0.841E-01  0.841E-01  0.841E-01
  16.396  0.242E+00  0.807E-01  0.807E-01  0.807E-01
  16.406  0.233E+00  0.775E-01  0.775E-01  0.775E-01
  16.416  0.223E+00  0.745E-01  0.745E-01  0.745E-01
  16.426  0.215E+00  0.717E-01  0.717E-01  0.717E-01
  16.436  0.208E+00  0.693E-01  0.693E-01  0.693E-01
  16.446  0.202E+00  0.672E-01  0.672E-01  0.672E-01
  16.456  0.196E+00  0.655E-01  0.655E-01  0.655E-01
  16.466  0.193E+00  0.642E-01  0.642E-01  0.642E-01
  16.476  0.190E+00  0.634E-01  0.634E-01  0.634E-01
  16.486  0.189E+00  0.630E-01  0.630E-01  0.630E-01
  16.496  0.189E+00  0.630E-01  0.630E-01  0.630E-01
  16.506  0.190E+00  0.634E-01  0.634E-01  0.634E-01
  16.516  0.193E+00  0.643E-01  0.643E-01  0.643E-01
  16.526  0.196E+00  0.654E-01  0.654E-01  0.654E-01
  16.536  0.201E+00  0.669E-01  0.669E-01  0.669E-01
  16.546  0.206E+00  0.686E-01  0.686E-01  0.686E-01
  16.556  0.212E+00  0.705E-01  0.705E-01  0.705E-01
  16.566  0.217E+00  0.725E-01  0.725E-01  0.725E-01
  16.576  0.223E+00  0.745E-01  0.745E-01  0.745E-01
  16.586  0.229E+00  0.764E-01  0.764E-01  0.764E-01
  16.596  0.235E+00  0.782E-01  0.782E-01  0.782E-01
  16.606  0.240E+00  0.799E-01  0.799E-01  0.799E-01
  16.616  0.244E+00  0.812E-01  0.812E-01  0.812E-01
  16.626  0.246E+00  0.822E-01  0.822E-01  0.822E-01
  16.636  0.248E+00  0.828E-01  0.828E-01  0.828E-01
  16.646  0.249E+00  0.829E-01  0.829E-01  0.829E-01
  16.656  0.248E+00  0.827E-01  0.827E-01  0.827E-01
  16.666  0.246E+00  0.820E-01  0.820E-01  0.820E-01
  16.676  0.243E+00  0.809E-01  0.809E-01  0.809E-01
  16.686  0.238E+00  0.794E-01  0.794E-01  0.794E-01
  16.696  0.232E+00  0.775E-01  0.775E-01  0.775E-01
  16.706  0.226E+00  0.753E-01  0.753E-01  0.753E-01
  16.716  0.219E+00  0.729E-01  0.729E-01  0.729E-01
  16.726  0.211E+00  0.703E-01  0.703E-01  0.703E-01
  16.736  0.203E+00  0.677E-01  0.677E-01  0.677E-01
  16.746  0.195E+00  0.650E-01  0.650E-01  0.650E-01
  16.756  0.187E+00  0.624E-01  0.624E-01  0.624E-01
  16.766  0.180E+00  0.600E-01  0.600E-01  0.600E-01
  16.776  0.174E+00  0.578E-01  0.578E-01  0.578E-01
  16.786  0.168E+00  0.559E-01  0.559E-01  0.559E-01
  16.796  0.163E+00  0.544E-01  0.544E-01  0.544E-01
  16.806  0.160E+00  0.533E-01  0.533E-01  0.533E-01
  16.816  0.158E+00  0.525E-01  0.525E-01  0.525E-01
  16.826  0.157E+00  0.523E-01  0.523E-01  0.523E-01
  16.836  0.157E+00  0.524E-01  0.524E-01  0.524E-01
  16.846  0.159E+00  0.530E-01  0.530E-01  0.530E-01
  16.856  0.162E+00  0.540E-01  0.540E-01  0.540E-01
  16.866  0.166E+00  0.553E-01  0.553E-01  0.553E-01
  16.876  0.171E+00  0.570E-01  0.570E-01  0.570E-01
  16.886  0.177E+00  0.588E-01  0.588E-01  0.588E-01
  16.896  0.183E+00  0.609E-01  0.609E-01  0.609E-01
  16.906  0.189E+00  0.629E-01  0.629E-01  0.629E-01
  16.916  0.195E+00  0.650E-01  0.650E-01  0.650E-01
  16.926  0.201E+00  0.669E-01  0.669E-01  0.669E-01
  16.936  0.206E+00  0.687E-01  0.687E-01  0.687E-01
  16.946  0.211E+00  0.702E-01  0.702E-01  0.702E-01
  16.956  0.214E+00  0.714E-01  0.714E-01  0.714E-01
  16.966  0.217E+00  0.722E-01  0.722E-01  0.722E-01
  16.976  0.218E+00  0.727E-01  0.727E-01  0.727E-01
  16.986  0.218E+00  0.727E-01  0.727E-01  0.727E-01
  16.996  0.217E+00  0.723E-01  0.723E-01  0.723E-01
  17.006  0.215E+00  0.715E-01  0.715E-01  0.715E-01
  17.016  0.211E+00  0.703E-01  0.703E-01  0.703E-01
  17.026  0.207E+00  0.689E-01  0.689E-01  0.689E-01
  17.036  0.201E+00  0.671E-01  0.671E-01  0.671E-01
  17.046  0.195E+00  0.652E-01  0.652E-01  0.652E-01
  17.056  0.189E+00  0.631E-01  0.631E-01  0.631E-01
  17.066  0.183E+00  0.610E-01  0.610E-01  0.610E-01
  17.076  0.177E+00  0.589E-01  0.589E-01  0.589E-01
  17.086  0.171E+00  0.569E-01  0.569E-01  0.569E-01
  17.096  0.166E+00  0.552E-01  0.552E-01  0.552E-01
  17.106  0.161E+00  0.538E-01  0.538E-01  0.538E-01
  17.116  0.158E+00  0.527E-01  0.527E-01  0.527E-01
  17.126  0.156E+00  0.520E-01  0.520E-01  0.520E-01
  17.136  0.156E+00  0.519E-01  0.519E-01  0.519E-01
  17.146  0.157E+00  0.522E-01  0.522E-01  0.522E-01
  17.156  0.159E+00  0.531E-01  0.531E-01  0.531E-01
  17.166  0.163E+00  0.545E-01  0.545E-01  0.545E-01
  17.176  0.169E+00  0.564E-01  0.564E-01  0.564E-01
  17.186  0.176E+00  0.588E-01  0.588E-01  0.588E-01
  17.196  0.185E+00  0.616E-01  0.616E-01  0.616E-01
  17.206  0.194E+00  0.647E-01  0.647E-01  0.647E-01
  17.216  0.204E+00  0.681E-01  0.681E-01  0.681E-01
  17.226  0.215E+00  0.717E-01  0.717E-01  0.717E-01
  17.236  0.226E+00  0.753E-01  0.753E-01  0.753E-01
  17.246  0.236E+00  0.788E-01  0.788E-01  0.788E-01
  17.256  0.246E+00  0.821E-01  0.821E-01  0.821E-01
  17.266  0.255E+00  0.851E-01  0.851E-01  0.851E-01
  17.276  0.263E+00  0.877E-01  0.877E-01  0.877E-01
  17.286  0.269E+00  0.898E-01  0.898E-01  0.898E-01
  17.296  0.274E+00  0.912E-01  0.912E-01  0.912E-01
  17.306  0.276E+00  0.921E-01  0.921E-01  0.921E-01
  17.316  0.277E+00  0.923E-01  0.923E-01  0.923E-01
  17.326  0.275E+00  0.917E-01  0.917E-01  0.917E-01
  17.336  0.272E+00  0.906E-01  0.906E-01  0.906E-01
  17.346  0.266E+00  0.887E-01  0.887E-01  0.887E-01
  17.356  0.259E+00  0.864E-01  0.864E-01  0.864E-01
  17.366  0.250E+00  0.835E-01  0.835E-01  0.835E-01
  17.376  0.240E+00  0.801E-01  0.801E-01  0.801E-01
  17.386  0.230E+00  0.765E-01  0.765E-01  0.765E-01
  17.396  0.218E+00  0.726E-01  0.726E-01  0.726E-01
  17.406  0.206E+00  0.687E-01  0.687E-01  0.687E-01
  17.416  0.194E+00  0.647E-01  0.647E-01  0.647E-01
  17.426  0.182E+00  0.608E-01  0.608E-01  0.608E-01
  17.436  0.171E+00  0.570E-01  0.570E-01  0.570E-01
  17.446  0.161E+00  0.536E-01  0.536E-01  0.536E-01
  17.456  0.151E+00  0.505E-01  0.505E-01  0.505E-01
  17.466  0.143E+00  0.478E-01  0.478E-01  0.478E-01
  17.476  0.137E+00  0.455E-01  0.455E-01  0.455E-01
  17.486  0.131E+00  0.438E-01  0.438E-01  0.438E-01
  17.496  0.128E+00  0.426E-01  0.426E-01  0.426E-01
  17.506  0.126E+00  0.420E-01  0.420E-01  0.420E-01
  17.516  0.126E+00  0.419E-01  0.419E-01  0.419E-01
  17.526  0.127E+00  0.424E-01  0.424E-01  0.424E-01
  17.536  0.130E+00  0.435E-01  0.435E-01  0.435E-01
  17.546  0.135E+00  0.450E-01  0.450E-01  0.450E-01
  17.556  0.141E+00  0.469E-01  0.469E-01  0.469E-01
  17.566  0.148E+00  0.493E-01  0.493E-01  0.493E-01
  17.576  0.156E+00  0.519E-01  0.519E-01  0.519E-01
  17.586  0.164E+00  0.548E-01  0.548E-01  0.548E-01
  17.596  0.173E+00  0.577E-01  0.577E-01  0.577E-01
  17.606  0.182E+00  0.608E-01  0.608E-01  0.608E-01
  17.616  0.191E+00  0.637E-01  0.637E-01  0.637E-01
  17.626  0.199E+00  0.665E-01  0.665E-01  0.665E-01
  17.636  0.207E+00  0.690E-01  0.690E-01  0.690E-01
  17.646  0.213E+00  0.711E-01  0.711E-01  0.711E-01
  17.656  0.219E+00  0.729E-01  0.729E-01  0.729E-01
  17.666  0.222E+00  0.741E-01  0.741E-01  0.741E-01
  17.676  0.224E+00  0.748E-01  0.748E-01  0.748E-01
  17.686  0.225E+00  0.750E-01  0.750E-01  0.750E-01
  17.696  0.224E+00  0.746E-01  0.746E-01  0.746E-01
  17.706  0.221E+00  0.737E-01  0.737E-01  0.737E-01
  17.716  0.217E+00  0.723E-01  0.723E-01  0.723E-01
  17.726  0.211E+00  0.704E-01  0.704E-01  0.704E-01
  17.736  0.204E+00  0.682E-01  0.682E-01  0.682E-01
  17.746  0.197E+00  0.656E-01  0.656E-01  0.656E-01
  17.756  0.189E+00  0.629E-01  0.629E-01  0.629E-01
  17.766  0.180E+00  0.600E-01  0.600E-01  0.600E-01
  17.776  0.171E+00  0.571E-01  0.571E-01  0.571E-01
  17.786  0.163E+00  0.543E-01  0.543E-01  0.543E-01
  17.796  0.155E+00  0.516E-01  0.516E-01  0.516E-01
  17.806  0.147E+00  0.491E-01  0.491E-01  0.491E-01
  17.816  0.141E+00  0.470E-01  0.470E-01  0.470E-01
  17.826  0.136E+00  0.452E-01  0.452E-01  0.452E-01
  17.836  0.131E+00  0.438E-01  0.438E-01  0.438E-01
  17.846  0.129E+00  0.428E-01  0.428E-01  0.428E-01
  17.856  0.127E+00  0.423E-01  0.423E-01  0.423E-01
  17.866  0.127E+00  0.423E-01  0.423E-01  0.423E-01
  17.876  0.128E+00  0.426E-01  0.426E-01  0.426E-01
  17.886  0.130E+00  0.435E-01  0.435E-01  0.435E-01
  17.896  0.134E+00  0.447E-01  0.447E-01  0.447E-01
  17.906  0.139E+00  0.463E-01  0.463E-01  0.463E-01
  17.916  0.145E+00  0.482E-01  0.482E-01  0.482E-01
  17.926  0.151E+00  0.505E-01  0.505E-01  0.505E-01
  17.936  0.159E+00  0.529E-01  0.529E-01  0.529E-01
  17.946  0.167E+00  0.555E-01  0.555E-01  0.555E-01
  17.956  0.175E+00  0.582E-01  0.582E-01  0.582E-01
  17.966  0.183E+00  0.610E-01  0.610E-01  0.610E-01
  17.976  0.191E+00  0.637E-01  0.637E-01  0.637E-01
  17.986  0.199E+00  0.663E-01  0.663E-01  0.663E-01
  17.996  0.206E+00  0.687E-01  0.687E-01  0.687E-01
  18.006  0.213E+00  0.708E-01  0.708E-01  0.708E-01
  18.016  0.218E+00  0.727E-01  0.727E-01  0.727E-01
  18.026  0.222E+00  0.741E-01  0.741E-01  0.741E-01
  18.036  0.225E+00  0.751E-01  0.751E-01  0.751E-01
  18.046  0.227E+00  0.757E-01  0.757E-01  0.757E-01
  18.056  0.227E+00  0.757E-01  0.757E-01  0.757E-01
  18.066  0.226E+00  0.752E-01  0.752E-01  0.752E-01
  18.076  0.223E+00  0.743E-01  0.743E-01  0.743E-01
  18.086  0.218E+00  0.728E-01  0.728E-01  0.728E-01
  18.096  0.213E+00  0.709E-01  0.709E-01  0.709E-01
  18.106  0.206E+00  0.685E-01  0.685E-01  0.685E-01
  18.116  0.198E+00  0.659E-01  0.659E-01  0.659E-01
  18.126  0.189E+00  0.629E-01  0.629E-01  0.629E-01
  18.136  0.179E+00  0.598E-01  0.598E-01  0.598E-01
  18.146  0.170E+00  0.565E-01  0.565E-01  0.565E-01
  18.156  0.160E+00  0.533E-01  0.533E-01  0.533E-01
  18.166  0.150E+00  0.500E-01  0.500E-01  0.500E-01
  18.176  0.141E+00  0.469E-01  0.469E-01  0.469E-01
  18.186  0.132E+00  0.440E-01  0.440E-01  0.440E-01
  18.196  0.124E+00  0.413E-01  0.413E-01  0.413E-01
  18.206  0.117E+00  0.390E-01  0.390E-01  0.390E-01
  18.216  0.111E+00  0.369E-01  0.369E-01  0.369E-01
  18.226  0.106E+00  0.353E-01  0.353E-01  0.353E-01
  18.236  0.102E+00  0.340E-01  0.340E-01  0.340E-01
  18.246  0.996E-01  0.332E-01  0.332E-01  0.332E-01
  18.256  0.982E-01  0.327E-01  0.327E-01  0.327E-01
  18.266  0.981E-01  0.327E-01  0.327E-01  0.327E-01
  18.276  0.992E-01  0.331E-01  0.331E-01  0.331E-01
  18.286  0.101E+00  0.338E-01  0.338E-01  0.338E-01
  18.296  0.105E+00  0.349E-01  0.349E-01  0.349E-01
  18.306  0.109E+00  0.363E-01  0.363E-01  0.363E-01
  18.316  0.114E+00  0.380E-01  0.380E-01  0.380E-01
  18.326  0.120E+00  0.399E-01  0.399E-01  0.399E-01
  18.336  0.126E+00  0.421E-01  0.421E-01  0.421E-01
  18.346  0.133E+00  0.445E-01  0.445E-01  0.445E-01
  18.356  0.141E+00  0.470E-01  0.470E-01  0.470E-01
  18.366  0.149E+00  0.495E-01  0.495E-01  0.495E-01
  18.376  0.156E+00  0.521E-01  0.521E-01  0.521E-01
  18.386  0.164E+00  0.546E-01  0.546E-01  0.546E-01
  18.396  0.171E+00  0.570E-01  0.570E-01  0.570E-01
  18.406  0.178E+00  0.593E-01  0.593E-01  0.593E-01
  18.416  0.184E+00  0.614E-01  0.614E-01  0.614E-01
  18.426  0.190E+00  0.633E-01  0.633E-01  0.633E-01
  18.436  0.195E+00  0.649E-01  0.649E-01  0.649E-01
  18.446  0.199E+00  0.662E-01  0.662E-01  0.662E-01
  18.456  0.202E+00  0.673E-01  0.673E-01  0.673E-01
  18.466  0.204E+00  0.681E-01  0.681E-01  0.681E-01
  18.476  0.206E+00  0.688E-01  0.688E-01  0.688E-01
  18.486  0.208E+00  0.694E-01  0.694E-01  0.694E-01
  18.496  0.210E+00  0.700E-01  0.700E-01  0.700E-01
  18.506  0.212E+00  0.706E-01  0.706E-01  0.706E-01
  18.516  0.214E+00  0.714E-01  0.714E-01  0.714E-01
  18.526  0.218E+00  0.726E-01  0.726E-01  0.726E-01
  18.536  0.222E+00  0.742E-01  0.742E-01  0.742E-01
  18.546  0.229E+00  0.763E-01  0.763E-01  0.763E-01
  18.556  0.237E+00  0.791E-01  0.791E-01  0.791E-01
  18.566  0.248E+00  0.827E-01  0.827E-01  0.827E-01
  18.576  0.261E+00  0.871E-01  0.871E-01  0.871E-01
  18.586  0.277E+00  0.925E-01  0.925E-01  0.925E-01
  18.596  0.296E+00  0.988E-01  0.988E-01  0.988E-01
  18.606  0.318E+00  0.106E+00  0.106E+00  0.106E+00
  18.616  0.343E+00  0.114E+00  0.114E+00  0.114E+00
  18.626  0.370E+00  0.123E+00  0.123E+00  0.123E+00
  18.636  0.400E+00  0.133E+00  0.133E+00  0.133E+00
  18.646  0.432E+00  0.144E+00  0.144E+00  0.144E+00
  18.656  0.466E+00  0.155E+00  0.155E+00  0.155E+00
  18.666  0.501E+00  0.167E+00  0.167E+00  0.167E+00
  18.676  0.536E+00  0.179E+00  0.179E+00  0.179E+00
  18.686  0.572E+00  0.191E+00  0.191E+00  0.191E+00
  18.696  0.606E+00  0.202E+00  0.202E+00  0.202E+00
  18.706  0.640E+00  0.213E+00  0.213E+00  0.213E+00
  18.716  0.672E+00  0.224E+00  0.224E+00  0.224E+00
  18.726  0.702E+00  0.234E+00  0.234E+00  0.234E+00
  18.736  0.729E+00  0.243E+00  0.243E+00  0.243E+00
  18.746  0.753E+00  0.251E+00  0.251E+00  0.251E+00
  18.756  0.773E+00  0.258E+00  0.258E+00  0.258E+00
  18.766  0.790E+00  0.263E+00  0.263E+00  0.263E+00
  18.776  0.803E+00  0.268E+00  0.268E+00  0.268E+00
  18.786  0.812E+00  0.271E+00  0.271E+00  0.271E+00
  18.796  0.817E+00  0.272E+00  0.272E+00  0.272E+00
  18.806  0.818E+00  0.273E+00  0.273E+00  0.273E+00
  18.816  0.815E+00  0.272E+00  0.272E+00  0.272E+00
  18.826  0.809E+00  0.270E+00  0.270E+00  0.270E+00
  18.836  0.800E+00  0.267E+00  0.267E+00  0.267E+00
  18.846  0.788E+00  0.263E+00  0.263E+00  0.263E+00
  18.856  0.773E+00  0.258E+00  0.258E+00  0.258E+00
  18.866  0.756E+00  0.252E+00  0.252E+00  0.252E+00
  18.876  0.736E+00  0.245E+00  0.245E+00  0.245E+00
  18.886  0.716E+00  0.239E+00  0.239E+00  0.239E+00
  18.896  0.694E+00  0.231E+00  0.231E+00  0.231E+00
  18.906  0.671E+00  0.224E+00  0.224E+00  0.224E+00
  18.916  0.648E+00  0.216E+00  0.216E+00  0.216E+00
  18.926  0.624E+00  0.208E+00  0.208E+00  0.208E+00
  18.936  0.601E+00  0.200E+00  0.200E+00  0.200E+00
  18.946  0.578E+00  0.193E+00  0.193E+00  0.193E+00
  18.956  0.555E+00  0.185E+00  0.185E+00  0.185E+00
  18.966  0.534E+00  0.178E+00  0.178E+00  0.178E+00
  18.976  0.513E+00  0.171E+00  0.171E+00  0.171E+00
  18.986  0.494E+00  0.165E+00  0.165E+00  0.165E+00
  18.996  0.477E+00  0.159E+00  0.159E+00  0.159E+00
  19.006  0.461E+00  0.154E+00  0.154E+00  0.154E+00
  19.016  0.446E+00  0.149E+00  0.149E+00  0.149E+00
  19.026  0.434E+00  0.145E+00  0.145E+00  0.145E+00
  19.036  0.423E+00  0.141E+00  0.141E+00  0.141E+00
  19.046  0.414E+00  0.138E+00  0.138E+00  0.138E+00
  19.056  0.407E+00  0.136E+00  0.136E+00  0.136E+00
  19.066  0.402E+00  0.134E+00  0.134E+00  0.134E+00
  19.076  0.400E+00  0.133E+00  0.133E+00  0.133E+00
  19.086  0.399E+00  0.133E+00  0.133E+00  0.133E+00
  19.096  0.400E+00  0.133E+00  0.133E+00  0.133E+00
  19.106  0.403E+00  0.134E+00  0.134E+00  0.134E+00
  19.116  0.408E+00  0.136E+00  0.136E+00  0.136E+00
  19.126  0.414E+00  0.138E+00  0.138E+00  0.138E+00
  19.136  0.422E+00  0.141E+00  0.141E+00  0.141E+00
  19.146  0.431E+00  0.144E+00  0.144E+00  0.144E+00
  19.156  0.440E+00  0.147E+00  0.147E+00  0.147E+00
  19.166  0.450E+00  0.150E+00  0.150E+00  0.150E+00
  19.176  0.461E+00  0.154E+00  0.154E+00  0.154E+00
  19.186  0.471E+00  0.157E+00  0.157E+00  0.157E+00
  19.196  0.480E+00  0.160E+00  0.160E+00  0.160E+00
  19.206  0.489E+00  0.163E+00  0.163E+00  0.163E+00
  19.216  0.496E+00  0.165E+00  0.165E+00  0.165E+00
  19.226  0.501E+00  0.167E+00  0.167E+00  0.167E+00
  19.236  0.505E+00  0.168E+00  0.168E+00  0.168E+00
  19.246  0.507E+00  0.169E+00  0.169E+00  0.169E+00
  19.256  0.507E+00  0.169E+00  0.169E+00  0.169E+00
  19.266  0.505E+00  0.168E+00  0.168E+00  0.168E+00
  19.276  0.500E+00  0.167E+00  0.167E+00  0.167E+00
  19.286  0.494E+00  0.165E+00  0.165E+00  0.165E+00
  19.296  0.486E+00  0.162E+00  0.162E+00  0.162E+00
  19.306  0.477E+00  0.159E+00  0.159E+00  0.159E+00
  19.316  0.466E+00  0.155E+00  0.155E+00  0.155E+00
  19.326  0.454E+00  0.151E+00  0.151E+00  0.151E+00
  19.336  0.441E+00  0.147E+00  0.147E+00  0.147E+00
  19.346  0.427E+00  0.142E+00  0.142E+00  0.142E+00
  19.356  0.413E+00  0.138E+00  0.138E+00  0.138E+00
  19.366  0.399E+00  0.133E+00  0.133E+00  0.133E+00
  19.376  0.384E+00  0.128E+00  0.128E+00  0.128E+00
  19.386  0.370E+00  0.123E+00  0.123E+00  0.123E+00
  19.396  0.356E+00  0.119E+00  0.119E+00  0.119E+00
  19.406  0.343E+00  0.114E+00  0.114E+00  0.114E+00
  19.416  0.330E+00  0.110E+00  0.110E+00  0.110E+00
  19.426  0.318E+00  0.106E+00  0.106E+00  0.106E+00
  19.436  0.307E+00  0.102E+00  0.102E+00  0.102E+00
  19.446  0.297E+00  0.990E-01  0.990E-01  0.990E-01
  19.456  0.288E+00  0.961E-01  0.961E-01  0.961E-01
  19.466  0.281E+00  0.937E-01  0.937E-01  0.937E-01
  19.476  0.275E+00  0.918E-01  0.918E-01  0.918E-01
  19.486  0.271E+00  0.904E-01  0.904E-01  0.904E-01
  19.496  0.269E+00  0.896E-01  0.896E-01  0.896E-01
  19.506  0.268E+00  0.892E-01  0.892E-01  0.892E-01
  19.516  0.268E+00  0.894E-01  0.894E-01  0.894E-01
  19.526  0.270E+00  0.900E-01  0.900E-01  0.900E-01
  19.536  0.273E+00  0.910E-01  0.910E-01  0.910E-01
  19.546  0.277E+00  0.924E-01  0.924E-01  0.924E-01
  19.556  0.282E+00  0.941E-01  0.941E-01  0.941E-01
  19.566  0.288E+00  0.959E-01  0.959E-01  0.959E-01
  19.576  0.293E+00  0.978E-01  0.978E-01  0.978E-01
  19.586  0.299E+00  0.997E-01  0.997E-01  0.997E-01
  19.596  0.305E+00  0.102E+00  0.102E+00  0.102E+00
  19.606  0.310E+00  0.103E+00  0.103E+00  0.103E+00
  19.616  0.314E+00  0.105E+00  0.105E+00  0.105E+00
  19.626  0.317E+00  0.106E+00  0.106E+00  0.106E+00
  19.636  0.320E+00  0.107E+00  0.107E+00  0.107E+00
  19.646  0.321E+00  0.107E+00  0.107E+00  0.107E+00
  19.656  0.321E+00  0.107E+00  0.107E+00  0.107E+00
  19.666  0.321E+00  0.107E+00  0.107E+00  0.107E+00
  19.676  0.319E+00  0.106E+00  0.106E+00  0.106E+00
  19.686  0.317E+00  0.106E+00  0.106E+00  0.106E+00
  19.696  0.313E+00  0.104E+00  0.104E+00  0.104E+00
  19.706  0.309E+00  0.103E+00  0.103E+00  0.103E+00
  19.716  0.305E+00  0.102E+00  0.102E+00  0.102E+00
  19.726  0.300E+00  0.100E+00  0.100E+00  0.100E+00
  19.736  0.295E+00  0.984E-01  0.984E-01  0.984E-01
  19.746  0.290E+00  0.967E-01  0.967E-01  0.967E-01
  19.756  0.285E+00  0.950E-01  0.950E-01  0.950E-01
  19.766  0.280E+00  0.932E-01  0.932E-01  0.932E-01
  19.776  0.274E+00  0.914E-01  0.914E-01  0.914E-01
  19.786  0.269E+00  0.895E-01  0.895E-01  0.895E-01
  19.796  0.263E+00  0.877E-01  0.877E-01  0.877E-01
  19.806  0.257E+00  0.857E-01  0.857E-01  0.857E-01
  19.816  0.251E+00  0.838E-01  0.838E-01  0.838E-01
  19.826  0.245E+00  0.817E-01  0.817E-01  0.817E-01
  19.836  0.239E+00  0.797E-01  0.797E-01  0.797E-01
  19.846  0.233E+00  0.776E-01  0.776E-01  0.776E-01
  19.856  0.227E+00  0.756E-01  0.756E-01  0.756E-01
  19.866  0.221E+00  0.736E-01  0.736E-01  0.736E-01
  19.876  0.215E+00  0.717E-01  0.717E-01  0.717E-01
  19.886  0.210E+00  0.700E-01  0.700E-01  0.700E-01
  19.896  0.206E+00  0.686E-01  0.686E-01  0.686E-01
  19.906  0.202E+00  0.674E-01  0.674E-01  0.674E-01
  19.916  0.200E+00  0.665E-01  0.665E-01  0.665E-01
  19.926  0.198E+00  0.660E-01  0.660E-01  0.660E-01
  19.936  0.198E+00  0.660E-01  0.660E-01  0.660E-01
  19.946  0.199E+00  0.663E-01  0.663E-01  0.663E-01
  19.956  0.201E+00  0.671E-01  0.671E-01  0.671E-01
  19.966  0.205E+00  0.682E-01  0.682E-01  0.682E-01
  19.976  0.209E+00  0.697E-01  0.697E-01  0.697E-01
  19.986  0.215E+00  0.715E-01  0.715E-01  0.715E-01
  19.996  0.221E+00  0.735E-01  0.735E-01  0.735E-01
  20.006  0.227E+00  0.756E-01  0.756E-01  0.756E-01
  20.016  0.233E+00  0.777E-01  0.777E-01  0.777E-01
  20.026  0.239E+00  0.798E-01  0.798E-01  0.798E-01
  20.036  0.245E+00  0.816E-01  0.816E-01  0.816E-01
  20.046  0.250E+00  0.832E-01  0.832E-01  0.832E-01
  20.056  0.253E+00  0.844E-01  0.844E-01  0.844E-01
  20.066  0.256E+00  0.852E-01  0.852E-01  0.852E-01
  20.076  0.257E+00  0.856E-01  0.856E-01  0.856E-01
  20.086  0.256E+00  0.855E-01  0.855E-01  0.855E-01
  20.096  0.255E+00  0.849E-01  0.849E-01  0.849E-01
  20.106  0.252E+00  0.838E-01  0.838E-01  0.838E-01
  20.116  0.247E+00  0.824E-01  0.824E-01  0.824E-01
  20.126  0.242E+00  0.806E-01  0.806E-01  0.806E-01
  20.136  0.235E+00  0.785E-01  0.785E-01  0.785E-01
  20.146  0.229E+00  0.762E-01  0.762E-01  0.762E-01
  20.156  0.221E+00  0.738E-01  0.738E-01  0.738E-01
  20.166  0.214E+00  0.714E-01  0.714E-01  0.714E-01
  20.176  0.207E+00  0.690E-01  0.690E-01  0.690E-01
  20.186  0.200E+00  0.668E-01  0.668E-01  0.668E-01
  20.196  0.194E+00  0.648E-01  0.648E-01  0.648E-01
  20.206  0.189E+00  0.630E-01  0.630E-01  0.630E-01
  20.216  0.184E+00  0.615E-01  0.615E-01  0.615E-01
  20.226  0.181E+00  0.603E-01  0.603E-01  0.603E-01
  20.236  0.178E+00  0.594E-01  0.594E-01  0.594E-01
  20.246  0.176E+00  0.588E-01  0.588E-01  0.588E-01
  20.256  0.175E+00  0.585E-01  0.585E-01  0.585E-01
  20.266  0.175E+00  0.585E-01  0.585E-01  0.585E-01
  20.276  0.176E+00  0.587E-01  0.587E-01  0.587E-01
  20.286  0.177E+00  0.592E-01  0.592E-01  0.592E-01
  20.296  0.179E+00  0.598E-01  0.598E-01  0.598E-01
  20.306  0.181E+00  0.605E-01  0.605E-01  0.605E-01
  20.316  0.184E+00  0.613E-01  0.613E-01  0.613E-01
  20.326  0.186E+00  0.621E-01  0.621E-01  0.621E-01
  20.336  0.189E+00  0.629E-01  0.629E-01  0.629E-01
  20.346  0.191E+00  0.636E-01  0.636E-01  0.636E-01
  20.356  0.193E+00  0.643E-01  0.643E-01  0.643E-01
  20.366  0.194E+00  0.648E-01  0.648E-01  0.648E-01
  20.376  0.195E+00  0.651E-01  0.651E-01  0.651E-01
  20.386  0.196E+00  0.653E-01  0.653E-01  0.653E-01
  20.396  0.196E+00  0.652E-01  0.652E-01  0.652E-01
  20.406  0.195E+00  0.649E-01  0.649E-01  0.649E-01
  20.416  0.193E+00  0.643E-01  0.643E-01  0.643E-01
  20.426  0.191E+00  0.635E-01  0.635E-01  0.635E-01
  20.436  0.187E+00  0.625E-01  0.625E-01  0.625E-01
  20.446  0.183E+00  0.612E-01  0.612E-01  0.612E-01
  20.456  0.179E+00  0.596E-01  0.596E-01  0.596E-01
  20.466  0.174E+00  0.579E-01  0.579E-01  0.579E-01
  20.476  0.168E+00  0.559E-01  0.559E-01  0.559E-01
  20.486  0.162E+00  0.539E-01  0.539E-01  0.539E-01
  20.496  0.155E+00  0.517E-01  0.517E-01  0.517E-01
  20.506  0.148E+00  0.494E-01  0.494E-01  0.494E-01
  20.516  0.141E+00  0.471E-01  0.471E-01  0.471E-01
  20.526  0.135E+00  0.449E-01  0.449E-01  0.449E-01
  20.536  0.128E+00  0.427E-01  0.427E-01  0.427E-01
  20.546  0.122E+00  0.406E-01  0.406E-01  0.406E-01
  20.556  0.116E+00  0.387E-01  0.387E-01  0.387E-01
  20.566  0.111E+00  0.370E-01  0.370E-01  0.370E-01
  20.576  0.106E+00  0.355E-01  0.355E-01  0.355E-01
  20.586  0.103E+00  0.342E-01  0.342E-01  0.342E-01
  20.596  0.997E-01  0.332E-01  0.332E-01  0.332E-01
  20.606  0.976E-01  0.325E-01  0.325E-01  0.325E-01
  20.616  0.962E-01  0.321E-01  0.321E-01  0.321E-01
  20.626  0.957E-01  0.319E-01  0.319E-01  0.319E-01
  20.636  0.958E-01  0.319E-01  0.319E-01  0.319E-01
  20.646  0.964E-01  0.321E-01  0.321E-01  0.321E-01
  20.656  0.976E-01  0.325E-01  0.325E-01  0.325E-01
  20.666  0.990E-01  0.330E-01  0.330E-01  0.330E-01
  20.676  0.101E+00  0.336E-01  0.336E-01  0.336E-01
  20.686  0.102E+00  0.341E-01  0.341E-01  0.341E-01
  20.696  0.104E+00  0.346E-01  0.346E-01  0.346E-01
  20.706  0.105E+00  0.350E-01  0.350E-01  0.350E-01
  20.716  0.106E+00  0.353E-01  0.353E-01  0.353E-01
  20.726  0.106E+00  0.354E-01  0.354E-01  0.354E-01
  20.736  0.106E+00  0.353E-01  0.353E-01  0.353E-01
  20.746  0.105E+00  0.350E-01  0.350E-01  0.350E-01
  20.756  0.104E+00  0.345E-01  0.345E-01  0.345E-01
  20.766  0.102E+00  0.338E-01  0.338E-01  0.338E-01
  20.776  0.989E-01  0.330E-01  0.330E-01  0.330E-01
  20.786  0.958E-01  0.319E-01  0.319E-01  0.319E-01
  20.796  0.923E-01  0.308E-01  0.308E-01  0.308E-01
  20.806  0.886E-01  0.295E-01  0.295E-01  0.295E-01
  20.816  0.848E-01  0.283E-01  0.283E-01  0.283E-01
  20.826  0.811E-01  0.270E-01  0.270E-01  0.270E-01
  20.836  0.777E-01  0.259E-01  0.259E-01  0.259E-01
  20.846  0.747E-01  0.249E-01  0.249E-01  0.249E-01
  20.856  0.723E-01  0.241E-01  0.241E-01  0.241E-01
  20.866  0.705E-01  0.235E-01  0.235E-01  0.235E-01
  20.876  0.697E-01  0.232E-01  0.232E-01  0.232E-01
  20.886  0.698E-01  0.233E-01  0.233E-01  0.233E-01
  20.896  0.710E-01  0.237E-01  0.237E-01  0.237E-01
  20.906  0.733E-01  0.244E-01  0.244E-01  0.244E-01
  20.916  0.767E-01  0.256E-01  0.256E-01  0.256E-01
  20.926  0.814E-01  0.271E-01  0.271E-01  0.271E-01
  20.936  0.871E-01  0.290E-01  0.290E-01  0.290E-01
  20.946  0.940E-01  0.313E-01  0.313E-01  0.313E-01
  20.956  0.102E+00  0.340E-01  0.340E-01  0.340E-01
  20.966  0.111E+00  0.369E-01  0.369E-01  0.369E-01
  20.976  0.121E+00  0.402E-01  0.402E-01  0.402E-01
  20.986  0.131E+00  0.437E-01  0.437E-01  0.437E-01
  20.996  0.142E+00  0.474E-01  0.474E-01  0.474E-01
  21.006  0.154E+00  0.513E-01  0.513E-01  0.513E-01
  21.016  0.166E+00  0.552E-01  0.552E-01  0.552E-01
  21.026  0.178E+00  0.593E-01  0.593E-01  0.593E-01
  21.036  0.190E+00  0.634E-01  0.634E-01  0.634E-01
  21.046  0.202E+00  0.675E-01  0.675E-01  0.675E-01
  21.056  0.215E+00  0.715E-01  0.715E-01  0.715E-01
  21.066  0.226E+00  0.755E-01  0.755E-01  0.755E-01
  21.076  0.238E+00  0.793E-01  0.793E-01  0.793E-01
  21.086  0.249E+00  0.830E-01  0.830E-01  0.830E-01
  21.096  0.259E+00  0.865E-01  0.865E-01  0.865E-01
  21.106  0.269E+00  0.897E-01  0.897E-01  0.897E-01
  21.116  0.278E+00  0.927E-01  0.927E-01  0.927E-01
  21.126  0.286E+00  0.954E-01  0.954E-01  0.954E-01
  21.136  0.294E+00  0.978E-01  0.978E-01  0.978E-01
  21.146  0.300E+00  0.999E-01  0.999E-01  0.999E-01
  21.156  0.305E+00  0.102E+00  0.102E+00  0.102E+00
  21.166  0.309E+00  0.103E+00  0.103E+00  0.103E+00
  21.176  0.312E+00  0.104E+00  0.104E+00  0.104E+00
  21.186  0.314E+00  0.105E+00  0.105E+00  0.105E+00
  21.196  0.316E+00  0.105E+00  0.105E+00  0.105E+00
  21.206  0.316E+00  0.105E+00  0.105E+00  0.105E+00
  21.216  0.315E+00  0.105E+00  0.105E+00  0.105E+00
  21.226  0.313E+00  0.104E+00  0.104E+00  0.104E+00
  21.236  0.311E+00  0.104E+00  0.104E+00  0.104E+00
  21.246  0.308E+00  0.103E+00  0.103E+00  0.103E+00
  21.256  0.305E+00  0.102E+00  0.102E+00  0.102E+00
  21.266  0.302E+00  0.101E+00  0.101E+00  0.101E+00
  21.276  0.299E+00  0.995E-01  0.995E-01  0.995E-01
  21.286  0.295E+00  0.984E-01  0.984E-01  0.984E-01
  21.296  0.292E+00  0.973E-01  0.973E-01  0.973E-01
  21.306  0.289E+00  0.963E-01  0.963E-01  0.963E-01
  21.316  0.286E+00  0.954E-01  0.954E-01  0.954E-01
  21.326  0.284E+00  0.947E-01  0.947E-01  0.947E-01
  21.336  0.283E+00  0.942E-01  0.942E-01  0.942E-01
  21.346  0.281E+00  0.938E-01  0.938E-01  0.938E-01
  21.356  0.281E+00  0.935E-01  0.935E-01  0.935E-01
  21.366  0.280E+00  0.934E-01  0.934E-01  0.934E-01
  21.376  0.280E+00  0.934E-01  0.934E-01  0.934E-01
  21.386  0.281E+00  0.935E-01  0.935E-01  0.935E-01
  21.396  0.281E+00  0.936E-01  0.936E-01  0.936E-01
  21.406  0.281E+00  0.938E-01  0.938E-01  0.938E-01
  21.416  0.282E+00  0.939E-01  0.939E-01  0.939E-01
  21.426  0.282E+00  0.940E-01  0.940E-01  0.940E-01
  21.436  0.282E+00  0.940E-01  0.940E-01  0.940E-01
  21.446  0.282E+00  0.939E-01  0.939E-01  0.939E-01
  21.456  0.281E+00  0.936E-01  0.936E-01  0.936E-01
  21.466  0.280E+00  0.932E-01  0.932E-01  0.932E-01
  21.476  0.278E+00  0.927E-01  0.927E-01  0.927E-01
  21.486  0.276E+00  0.921E-01  0.921E-01  0.921E-01
  21.496  0.274E+00  0.913E-01  0.913E-01  0.913E-01
  21.506  0.271E+00  0.905E-01  0.905E-01  0.905E-01
  21.516  0.269E+00  0.896E-01  0.896E-01  0.896E-01
  21.526  0.266E+00  0.887E-01  0.887E-01  0.887E-01
  21.536  0.263E+00  0.878E-01  0.878E-01  0.878E-01
  21.546  0.261E+00  0.869E-01  0.869E-01  0.869E-01
  21.556  0.259E+00  0.862E-01  0.862E-01  0.862E-01
  21.566  0.257E+00  0.856E-01  0.856E-01  0.856E-01
  21.576  0.255E+00  0.851E-01  0.851E-01  0.851E-01
  21.586  0.254E+00  0.848E-01  0.848E-01  0.848E-01
  21.596  0.254E+00  0.846E-01  0.846E-01  0.846E-01
  21.606  0.254E+00  0.847E-01  0.847E-01  0.847E-01
  21.616  0.255E+00  0.850E-01  0.850E-01  0.850E-01
  21.626  0.257E+00  0.855E-01  0.855E-01  0.855E-01
  21.636  0.259E+00  0.862E-01  0.862E-01  0.862E-01
  21.646  0.261E+00  0.871E-01  0.871E-01  0.871E-01
  21.656  0.265E+00  0.882E-01  0.882E-01  0.882E-01
  21.666  0.269E+00  0.895E-01  0.895E-01  0.895E-01
  21.676  0.273E+00  0.910E-01  0.910E-01  0.910E-01
  21.686  0.278E+00  0.926E-01  0.926E-01  0.926E-01
  21.696  0.283E+00  0.944E-01  0.944E-01  0.944E-01
  21.706  0.289E+00  0.964E-01  0.964E-01  0.964E-01
  21.716  0.296E+00  0.985E-01  0.985E-01  0.985E-01
  21.726  0.302E+00  0.101E+00  0.101E+00  0.101E+00
  21.736  0.310E+00  0.103E+00  0.103E+00  0.103E+00
  21.746  0.318E+00  0.106E+00  0.106E+00  0.106E+00
  21.756  0.326E+00  0.109E+00  0.109E+00  0.109E+00
  21.766  0.335E+00  0.112E+00  0.112E+00  0.112E+00
  21.776  0.344E+00  0.115E+00  0.115E+00  0.115E+00
  21.786  0.354E+00  0.118E+00  0.118E+00  0.118E+00
  21.796  0.364E+00  0.121E+00  0.121E+00  0.121E+00
  21.806  0.375E+00  0.125E+00  0.125E+00  0.125E+00
  21.816  0.387E+00  0.129E+00  0.129E+00  0.129E+00
  21.826  0.400E+00  0.133E+00  0.133E+00  0.133E+00
  21.836  0.413E+00  0.138E+00  0.138E+00  0.138E+00
  21.846  0.427E+00  0.142E+00  0.142E+00  0.142E+00
  21.856  0.442E+00  0.147E+00  0.147E+00  0.147E+00
  21.866  0.458E+00  0.153E+00  0.153E+00  0.153E+00
  21.876  0.475E+00  0.158E+00  0.158E+00  0.158E+00
  21.886  0.494E+00  0.165E+00  0.165E+00  0.165E+00
  21.896  0.513E+00  0.171E+00  0.171E+00  0.171E+00
  21.906  0.534E+00  0.178E+00  0.178E+00  0.178E+00
  21.916  0.556E+00  0.185E+00  0.185E+00  0.185E+00
  21.926  0.579E+00  0.193E+00  0.193E+00  0.193E+00
  21.936  0.603E+00  0.201E+00  0.201E+00  0.201E+00
  21.946  0.627E+00  0.209E+00  0.209E+00  0.209E+00
  21.956  0.652E+00  0.217E+00  0.217E+00  0.217E+00
  21.966  0.676E+00  0.225E+00  0.225E+00  0.225E+00
  21.976  0.699E+00  0.233E+00  0.233E+00  0.233E+00
  21.986  0.721E+00  0.240E+00  0.240E+00  0.240E+00
  21.996  0.741E+00  0.247E+00  0.247E+00  0.247E+00
  22.006  0.759E+00  0.253E+00  0.253E+00  0.253E+00
  22.016  0.775E+00  0.258E+00  0.258E+00  0.258E+00
  22.026  0.787E+00  0.262E+00  0.262E+00  0.262E+00
  22.036  0.796E+00  0.265E+00  0.265E+00  0.265E+00
  22.046  0.801E+00  0.267E+00  0.267E+00  0.267E+00
  22.056  0.802E+00  0.267E+00  0.267E+00  0.267E+00
  22.066  0.800E+00  0.267E+00  0.267E+00  0.267E+00
  22.076  0.794E+00  0.265E+00  0.265E+00  0.265E+00
  22.086  0.784E+00  0.261E+00  0.261E+00  0.261E+00
  22.096  0.772E+00  0.257E+00  0.257E+00  0.257E+00
  22.106  0.756E+00  0.252E+00  0.252E+00  0.252E+00
  22.116  0.738E+00  0.246E+00  0.246E+00  0.246E+00
  22.126  0.718E+00  0.239E+00  0.239E+00  0.239E+00
  22.136  0.696E+00  0.232E+00  0.232E+00  0.232E+00
  22.146  0.672E+00  0.224E+00  0.224E+00  0.224E+00
  22.156  0.648E+00  0.216E+00  0.216E+00  0.216E+00
  22.166  0.622E+00  0.207E+00  0.207E+00  0.207E+00
  22.176  0.597E+00  0.199E+00  0.199E+00  0.199E+00
  22.186  0.571E+00  0.190E+00  0.190E+00  0.190E+00
  22.196  0.545E+00  0.182E+00  0.182E+00  0.182E+00
  22.206  0.519E+00  0.173E+00  0.173E+00  0.173E+00
  22.216  0.493E+00  0.164E+00  0.164E+00  0.164E+00
  22.226  0.468E+00  0.156E+00  0.156E+00  0.156E+00
  22.236  0.443E+00  0.148E+00  0.148E+00  0.148E+00
  22.246  0.419E+00  0.140E+00  0.140E+00  0.140E+00
  22.256  0.396E+00  0.132E+00  0.132E+00  0.132E+00
  22.266  0.374E+00  0.125E+00  0.125E+00  0.125E+00
  22.276  0.353E+00  0.118E+00  0.118E+00  0.118E+00
  22.286  0.334E+00  0.111E+00  0.111E+00  0.111E+00
  22.296  0.315E+00  0.105E+00  0.105E+00  0.105E+00
  22.306  0.299E+00  0.996E-01  0.996E-01  0.996E-01
  22.316  0.284E+00  0.946E-01  0.946E-01  0.946E-01
  22.326  0.270E+00  0.901E-01  0.901E-01  0.901E-01
  22.336  0.258E+00  0.862E-01  0.862E-01  0.862E-01
  22.346  0.248E+00  0.828E-01  0.828E-01  0.828E-01
  22.356  0.240E+00  0.799E-01  0.799E-01  0.799E-01
  22.366  0.233E+00  0.775E-01  0.775E-01  0.775E-01
  22.376  0.227E+00  0.756E-01  0.756E-01  0.756E-01
  22.386  0.222E+00  0.740E-01  0.740E-01  0.740E-01
  22.396  0.218E+00  0.727E-01  0.727E-01  0.727E-01
  22.406  0.215E+00  0.717E-01  0.717E-01  0.717E-01
  22.416  0.213E+00  0.709E-01  0.709E-01  0.709E-01
  22.426  0.211E+00  0.703E-01  0.703E-01  0.703E-01
  22.436  0.210E+00  0.699E-01  0.699E-01  0.699E-01
  22.446  0.209E+00  0.695E-01  0.695E-01  0.695E-01
  22.456  0.208E+00  0.692E-01  0.692E-01  0.692E-01
  22.466  0.207E+00  0.691E-01  0.691E-01  0.691E-01
  22.476  0.207E+00  0.690E-01  0.690E-01  0.690E-01
  22.486  0.207E+00  0.690E-01  0.690E-01  0.690E-01
  22.496  0.207E+00  0.692E-01  0.692E-01  0.692E-01
  22.506  0.208E+00  0.694E-01  0.694E-01  0.694E-01
  22.516  0.209E+00  0.698E-01  0.698E-01  0.698E-01
  22.526  0.211E+00  0.703E-01  0.703E-01  0.703E-01
  22.536  0.213E+00  0.710E-01  0.710E-01  0.710E-01
  22.546  0.215E+00  0.718E-01  0.718E-01  0.718E-01
  22.556  0.218E+00  0.726E-01  0.726E-01  0.726E-01
  22.566  0.221E+00  0.736E-01  0.736E-01  0.736E-01
  22.576  0.224E+00  0.746E-01  0.746E-01  0.746E-01
  22.586  0.227E+00  0.756E-01  0.756E-01  0.756E-01
  22.596  0.230E+00  0.766E-01  0.766E-01  0.766E-01
  22.606  0.232E+00  0.775E-01  0.775E-01  0.775E-01
  22.616  0.235E+00  0.783E-01  0.783E-01  0.783E-01
  22.626  0.237E+00  0.789E-01  0.789E-01  0.789E-01
  22.636  0.238E+00  0.793E-01  0.793E-01  0.793E-01
  22.646  0.239E+00  0.795E-01  0.795E-01  0.795E-01
  22.656  0.238E+00  0.795E-01  0.795E-01  0.795E-01
  22.666  0.238E+00  0.792E-01  0.792E-01  0.792E-01
  22.676  0.236E+00  0.786E-01  0.786E-01  0.786E-01
  22.686  0.233E+00  0.777E-01  0.777E-01  0.777E-01
  22.696  0.230E+00  0.766E-01  0.766E-01  0.766E-01
  22.706  0.225E+00  0.751E-01  0.751E-01  0.751E-01
  22.716  0.220E+00  0.733E-01  0.733E-01  0.733E-01
  22.726  0.214E+00  0.713E-01  0.713E-01  0.713E-01
  22.736  0.207E+00  0.690E-01  0.690E-01  0.690E-01
  22.746  0.199E+00  0.665E-01  0.665E-01  0.665E-01
  22.756  0.191E+00  0.637E-01  0.637E-01  0.637E-01
  22.766  0.182E+00  0.608E-01  0.608E-01  0.608E-01
  22.776  0.173E+00  0.577E-01  0.577E-01  0.577E-01
  22.786  0.164E+00  0.546E-01  0.546E-01  0.546E-01
  22.796  0.154E+00  0.513E-01  0.513E-01  0.513E-01
  22.806  0.144E+00  0.481E-01  0.481E-01  0.481E-01
  22.816  0.135E+00  0.449E-01  0.449E-01  0.449E-01
  22.826  0.126E+00  0.419E-01  0.419E-01  0.419E-01
  22.836  0.117E+00  0.390E-01  0.390E-01  0.390E-01
  22.846  0.109E+00  0.363E-01  0.363E-01  0.363E-01
  22.856  0.102E+00  0.339E-01  0.339E-01  0.339E-01
  22.866  0.952E-01  0.317E-01  0.317E-01  0.317E-01
  22.876  0.899E-01  0.300E-01  0.300E-01  0.300E-01
  22.886  0.856E-01  0.285E-01  0.285E-01  0.285E-01
  22.896  0.825E-01  0.275E-01  0.275E-01  0.275E-01
  22.906  0.806E-01  0.269E-01  0.269E-01  0.269E-01
  22.916  0.798E-01  0.266E-01  0.266E-01  0.266E-01
  22.926  0.802E-01  0.267E-01  0.267E-01  0.267E-01
  22.936  0.816E-01  0.272E-01  0.272E-01  0.272E-01
  22.946  0.840E-01  0.280E-01  0.280E-01  0.280E-01
  22.956  0.873E-01  0.291E-01  0.291E-01  0.291E-01
  22.966  0.913E-01  0.304E-01  0.304E-01  0.304E-01
  22.976  0.959E-01  0.320E-01  0.320E-01  0.320E-01
  22.986  0.101E+00  0.336E-01  0.336E-01  0.336E-01
  22.996  0.106E+00  0.353E-01  0.353E-01  0.353E-01
  23.006  0.111E+00  0.371E-01  0.371E-01  0.371E-01
  23.016  0.117E+00  0.389E-01  0.389E-01  0.389E-01
  23.026  0.122E+00  0.405E-01  0.405E-01  0.405E-01
  23.036  0.126E+00  0.421E-01  0.421E-01  0.421E-01
  23.046  0.130E+00  0.435E-01  0.435E-01  0.435E-01
  23.056  0.134E+00  0.447E-01  0.447E-01  0.447E-01
  23.066  0.137E+00  0.456E-01  0.456E-01  0.456E-01
  23.076  0.139E+00  0.464E-01  0.464E-01  0.464E-01
  23.086  0.141E+00  0.469E-01  0.469E-01  0.469E-01
  23.096  0.141E+00  0.471E-01  0.471E-01  0.471E-01
  23.106  0.141E+00  0.470E-01  0.470E-01  0.470E-01
  23.116  0.140E+00  0.467E-01  0.467E-01  0.467E-01
  23.126  0.138E+00  0.461E-01  0.461E-01  0.461E-01
  23.136  0.136E+00  0.452E-01  0.452E-01  0.452E-01
  23.146  0.133E+00  0.442E-01  0.442E-01  0.442E-01
  23.156  0.129E+00  0.429E-01  0.429E-01  0.429E-01
  23.166  0.124E+00  0.414E-01  0.414E-01  0.414E-01
  23.176  0.119E+00  0.397E-01  0.397E-01  0.397E-01
  23.186  0.114E+00  0.379E-01  0.379E-01  0.379E-01
  23.196  0.108E+00  0.360E-01  0.360E-01  0.360E-01
  23.206  0.102E+00  0.341E-01  0.341E-01  0.341E-01
  23.216  0.962E-01  0.321E-01  0.321E-01  0.321E-01
  23.226  0.902E-01  0.301E-01  0.301E-01  0.301E-01
  23.236  0.843E-01  0.281E-01  0.281E-01  0.281E-01
  23.246  0.786E-01  0.262E-01  0.262E-01  0.262E-01
  23.256  0.733E-01  0.244E-01  0.244E-01  0.244E-01
  23.266  0.683E-01  0.228E-01  0.228E-01  0.228E-01
  23.276  0.638E-01  0.213E-01  0.213E-01  0.213E-01
  23.286  0.599E-01  0.200E-01  0.200E-01  0.200E-01
  23.296  0.566E-01  0.189E-01  0.189E-01  0.189E-01
  23.306  0.539E-01  0.180E-01  0.180E-01  0.180E-01
  23.316  0.518E-01  0.173E-01  0.173E-01  0.173E-01
  23.326  0.503E-01  0.168E-01  0.168E-01  0.168E-01
  23.336  0.495E-01  0.165E-01  0.165E-01  0.165E-01
  23.346  0.493E-01  0.164E-01  0.164E-01  0.164E-01
  23.356  0.497E-01  0.166E-01  0.166E-01  0.166E-01
  23.366  0.506E-01  0.169E-01  0.169E-01  0.169E-01
  23.376  0.519E-01  0.173E-01  0.173E-01  0.173E-01
  23.386  0.538E-01  0.179E-01  0.179E-01  0.179E-01
  23.396  0.560E-01  0.187E-01  0.187E-01  0.187E-01
  23.406  0.587E-01  0.196E-01  0.196E-01  0.196E-01
  23.416  0.617E-01  0.206E-01  0.206E-01  0.206E-01
  23.426  0.651E-01  0.217E-01  0.217E-01  0.217E-01
  23.436  0.687E-01  0.229E-01  0.229E-01  0.229E-01
  23.446  0.727E-01  0.242E-01  0.242E-01  0.242E-01
  23.456  0.770E-01  0.257E-01  0.257E-01  0.257E-01
  23.466  0.814E-01  0.271E-01  0.271E-01  0.271E-01
  23.476  0.861E-01  0.287E-01  0.287E-01  0.287E-01
  23.486  0.908E-01  0.303E-01  0.303E-01  0.303E-01
  23.496  0.957E-01  0.319E-01  0.319E-01  0.319E-01
  23.506  0.100E+00  0.335E-01  0.335E-01  0.335E-01
  23.516  0.105E+00  0.350E-01  0.350E-01  0.350E-01
  23.526  0.109E+00  0.365E-01  0.365E-01  0.365E-01
  23.536  0.113E+00  0.378E-01  0.378E-01  0.378E-01
  23.546  0.117E+00  0.389E-01  0.389E-01  0.389E-01
  23.556  0.120E+00  0.399E-01  0.399E-01  0.399E-01
  23.566  0.122E+00  0.405E-01  0.405E-01  0.405E-01
  23.576  0.123E+00  0.409E-01  0.409E-01  0.409E-01
  23.586  0.123E+00  0.410E-01  0.410E-01  0.410E-01
  23.596  0.123E+00  0.408E-01  0.408E-01  0.408E-01
  23.606  0.121E+00  0.403E-01  0.403E-01  0.403E-01
  23.616  0.119E+00  0.395E-01  0.395E-01  0.395E-01
  23.626  0.115E+00  0.384E-01  0.384E-01  0.384E-01
  23.636  0.111E+00  0.371E-01  0.371E-01  0.371E-01
  23.646  0.107E+00  0.356E-01  0.356E-01  0.356E-01
  23.656  0.102E+00  0.340E-01  0.340E-01  0.340E-01
  23.666  0.970E-01  0.323E-01  0.323E-01  0.323E-01
  23.676  0.920E-01  0.307E-01  0.307E-01  0.307E-01
  23.686  0.871E-01  0.290E-01  0.290E-01  0.290E-01
  23.696  0.825E-01  0.275E-01  0.275E-01  0.275E-01
  23.706  0.785E-01  0.262E-01  0.262E-01  0.262E-01
  23.716  0.751E-01  0.250E-01  0.250E-01  0.250E-01
  23.726  0.724E-01  0.241E-01  0.241E-01  0.241E-01
  23.736  0.706E-01  0.235E-01  0.235E-01  0.235E-01
  23.746  0.697E-01  0.232E-01  0.232E-01  0.232E-01
  23.756  0.696E-01  0.232E-01  0.232E-01  0.232E-01
  23.766  0.705E-01  0.235E-01  0.235E-01  0.235E-01
  23.776  0.721E-01  0.240E-01  0.240E-01  0.240E-01
  23.786  0.744E-01  0.248E-01  0.248E-01  0.248E-01
  23.796  0.773E-01  0.258E-01  0.258E-01  0.258E-01
  23.806  0.807E-01  0.269E-01  0.269E-01  0.269E-01
  23.816  0.843E-01  0.281E-01  0.281E-01  0.281E-01
  23.826  0.881E-01  0.294E-01  0.294E-01  0.294E-01
  23.836  0.919E-01  0.306E-01  0.306E-01  0.306E-01
  23.846  0.955E-01  0.318E-01  0.318E-01  0.318E-01
  23.856  0.988E-01  0.329E-01  0.329E-01  0.329E-01
  23.866  0.102E+00  0.338E-01  0.338E-01  0.338E-01
  23.876  0.104E+00  0.346E-01  0.346E-01  0.346E-01
  23.886  0.105E+00  0.351E-01  0.351E-01  0.351E-01
  23.896  0.106E+00  0.353E-01  0.353E-01  0.353E-01
  23.906  0.106E+00  0.353E-01  0.353E-01  0.353E-01
  23.916  0.105E+00  0.350E-01  0.350E-01  0.350E-01
  23.926  0.103E+00  0.344E-01  0.344E-01  0.344E-01
  23.936  0.101E+00  0.336E-01  0.336E-01  0.336E-01
  23.946  0.979E-01  0.326E-01  0.326E-01  0.326E-01
  23.956  0.944E-01  0.315E-01  0.315E-01  0.315E-01
  23.966  0.905E-01  0.302E-01  0.302E-01  0.302E-01
  23.976  0.862E-01  0.287E-01  0.287E-01  0.287E-01
  23.986  0.818E-01  0.273E-01  0.273E-01  0.273E-01
  23.996  0.774E-01  0.258E-01  0.258E-01  0.258E-01
  24.006  0.730E-01  0.243E-01  0.243E-01  0.243E-01
  24.016  0.688E-01  0.229E-01  0.229E-01  0.229E-01
  24.026  0.649E-01  0.216E-01  0.216E-01  0.216E-01
  24.036  0.613E-01  0.204E-01  0.204E-01  0.204E-01
  24.046  0.580E-01  0.193E-01  0.193E-01  0.193E-01
  24.056  0.551E-01  0.184E-01  0.184E-01  0.184E-01
  24.066  0.526E-01  0.175E-01  0.175E-01  0.175E-01
  24.076  0.504E-01  0.168E-01  0.168E-01  0.168E-01
  24.086  0.484E-01  0.161E-01  0.161E-01  0.161E-01
  24.096  0.467E-01  0.156E-01  0.156E-01  0.156E-01
  24.106  0.452E-01  0.151E-01  0.151E-01  0.151E-01
  24.116  0.437E-01  0.146E-01  0.146E-01  0.146E-01
  24.126  0.423E-01  0.141E-01  0.141E-01  0.141E-01
  24.136  0.409E-01  0.136E-01  0.136E-01  0.136E-01
  24.146  0.394E-01  0.131E-01  0.131E-01  0.131E-01
  24.156  0.378E-01  0.126E-01  0.126E-01  0.126E-01
  24.166  0.360E-01  0.120E-01  0.120E-01  0.120E-01
  24.176  0.341E-01  0.114E-01  0.114E-01  0.114E-01
  24.186  0.321E-01  0.107E-01  0.107E-01  0.107E-01
  24.196  0.300E-01  0.100E-01  0.100E-01  0.100E-01
  24.206  0.278E-01  0.926E-02  0.926E-02  0.926E-02
  24.216  0.255E-01  0.850E-02  0.850E-02  0.850E-02
  24.226  0.232E-01  0.773E-02  0.773E-02  0.773E-02
  24.236  0.209E-01  0.696E-02  0.696E-02  0.696E-02
  24.246  0.186E-01  0.620E-02  0.620E-02  0.620E-02
  24.256  0.164E-01  0.548E-02  0.548E-02  0.548E-02
  24.266  0.144E-01  0.478E-02  0.478E-02  0.478E-02
  24.276  0.124E-01  0.414E-02  0.414E-02  0.414E-02
  24.286  0.106E-01  0.354E-02  0.354E-02  0.354E-02
  24.296  0.900E-02  0.300E-02  0.300E-02  0.300E-02
  24.306  0.754E-02  0.251E-02  0.251E-02  0.251E-02
  24.316  0.625E-02  0.208E-02  0.208E-02  0.208E-02
  24.326  0.513E-02  0.171E-02  0.171E-02  0.171E-02
  24.336  0.416E-02  0.139E-02  0.139E-02  0.139E-02
  24.346  0.334E-02  0.111E-02  0.111E-02  0.111E-02
  24.356  0.266E-02  0.885E-03  0.885E-03  0.885E-03
  24.366  0.209E-02  0.696E-03  0.696E-03  0.696E-03
  24.376  0.162E-02  0.541E-03  0.541E-03  0.541E-03
  24.386  0.125E-02  0.416E-03  0.416E-03  0.416E-03
  24.396  0.950E-03  0.317E-03  0.317E-03  0.317E-03
  24.406  0.715E-03  0.238E-03  0.238E-03  0.238E-03
  24.416  0.532E-03  0.177E-03  0.177E-03  0.177E-03
  24.426  0.392E-03  0.131E-03  0.131E-03  0.131E-03
  24.436  0.286E-03  0.953E-04  0.953E-04  0.953E-04
  24.446  0.206E-03  0.687E-04  0.687E-04  0.687E-04
  24.456  0.147E-03  0.490E-04  0.490E-04  0.490E-04
  24.466  0.104E-03  0.346E-04  0.346E-04  0.346E-04
  24.476  0.724E-04  0.241E-04  0.241E-04  0.241E-04
  24.486  0.500E-04  0.167E-04  0.167E-04  0.167E-04
  24.496  0.341E-04  0.114E-04  0.114E-04  0.114E-04
  24.506  0.231E-04  0.769E-05  0.769E-05  0.769E-05
  24.516  0.154E-04  0.514E-05  0.514E-05  0.514E-05
  24.526  0.102E-04  0.340E-05  0.340E-05  0.340E-05
  24.536  0.667E-05  0.222E-05  0.222E-05  0.222E-05
  24.546  0.432E-05  0.144E-05  0.144E-05  0.144E-05
  24.556  0.276E-05  0.921E-06  0.921E-06  0.921E-06
