# E (eV)   ldos(E)   pdos(E)   
  -3.634  0.156E-06  0.156E-06
  -3.624  0.249E-06  0.249E-06
  -3.614  0.394E-06  0.394E-06
  -3.604  0.616E-06  0.616E-06
  -3.594  0.955E-06  0.955E-06
  -3.584  0.146E-05  0.146E-05
  -3.574  0.222E-05  0.222E-05
  -3.564  0.334E-05  0.334E-05
  -3.554  0.497E-05  0.497E-05
  -3.544  0.732E-05  0.732E-05
  -3.534  0.107E-04  0.107E-04
  -3.524  0.154E-04  0.154E-04
  -3.514  0.221E-04  0.221E-04
  -3.504  0.313E-04  0.313E-04
  -3.494  0.439E-04  0.439E-04
  -3.484  0.609E-04  0.609E-04
  -3.474  0.838E-04  0.838E-04
  -3.464  0.114E-03  0.114E-03
  -3.454  0.154E-03  0.154E-03
  -3.444  0.206E-03  0.206E-03
  -3.434  0.273E-03  0.273E-03
  -3.424  0.358E-03  0.358E-03
  -3.414  0.465E-03  0.465E-03
  -3.404  0.599E-03  0.599E-03
  -3.394  0.765E-03  0.765E-03
  -3.384  0.967E-03  0.967E-03
  -3.374  0.121E-02  0.121E-02
  -3.364  0.151E-02  0.151E-02
  -3.354  0.185E-02  0.185E-02
  -3.344  0.226E-02  0.226E-02
  -3.334  0.274E-02  0.274E-02
  -3.324  0.329E-02  0.329E-02
  -3.314  0.391E-02  0.391E-02
  -3.304  0.462E-02  0.462E-02
  -3.294  0.541E-02  0.541E-02
  -3.284  0.629E-02  0.629E-02
  -3.274  0.725E-02  0.725E-02
  -3.264  0.830E-02  0.830E-02
  -3.254  0.942E-02  0.942E-02
  -3.244  0.106E-01  0.106E-01
  -3.234  0.119E-01  0.119E-01
  -3.224  0.132E-01  0.132E-01
  -3.214  0.146E-01  0.146E-01
  -3.204  0.161E-01  0.161E-01
  -3.194  0.175E-01  0.175E-01
  -3.184  0.190E-01  0.190E-01
  -3.174  0.205E-01  0.205E-01
  -3.164  0.220E-01  0.220E-01
  -3.154  0.235E-01  0.235E-01
  -3.144  0.250E-01  0.250E-01
  -3.134  0.264E-01  0.264E-01
  -3.124  0.278E-01  0.278E-01
  -3.114  0.292E-01  0.292E-01
  -3.104  0.305E-01  0.305E-01
  -3.094  0.317E-01  0.317E-01
  -3.084  0.329E-01  0.329E-01
  -3.074  0.340E-01  0.340E-01
  -3.064  0.351E-01  0.351E-01
  -3.054  0.361E-01  0.361E-01
  -3.044  0.371E-01  0.371E-01
  -3.034  0.380E-01  0.380E-01
  -3.024  0.388E-01  0.388E-01
  -3.014  0.396E-01  0.396E-01
  -3.004  0.403E-01  0.403E-01
  -2.994  0.410E-01  0.410E-01
  -2.984  0.417E-01  0.417E-01
  -2.974  0.423E-01  0.423E-01
  -2.964  0.429E-01  0.429E-01
  -2.954  0.434E-01  0.434E-01
  -2.944  0.439E-01  0.439E-01
  -2.934  0.444E-01  0.444E-01
  -2.924  0.449E-01  0.449E-01
  -2.914  0.453E-01  0.453E-01
  -2.904  0.457E-01  0.457E-01
  -2.894  0.461E-01  0.461E-01
  -2.884  0.465E-01  0.465E-01
  -2.874  0.468E-01  0.468E-01
  -2.864  0.472E-01  0.472E-01
  -2.854  0.475E-01  0.475E-01
  -2.844  0.478E-01  0.478E-01
  -2.834  0.481E-01  0.481E-01
  -2.824  0.484E-01  0.484E-01
  -2.814  0.486E-01  0.486E-01
  -2.804  0.489E-01  0.489E-01
  -2.794  0.491E-01  0.491E-01
  -2.784  0.494E-01  0.494E-01
  -2.774  0.496E-01  0.496E-01
  -2.764  0.498E-01  0.498E-01
  -2.754  0.501E-01  0.501E-01
  -2.744  0.503E-01  0.503E-01
  -2.734  0.505E-01  0.505E-01
  -2.724  0.507E-01  0.507E-01
  -2.714  0.509E-01  0.509E-01
  -2.704  0.510E-01  0.510E-01
  -2.694  0.512E-01  0.512E-01
  -2.684  0.514E-01  0.514E-01
  -2.674  0.516E-01  0.516E-01
  -2.664  0.517E-01  0.517E-01
  -2.654  0.519E-01  0.519E-01
  -2.644  0.520E-01  0.520E-01
  -2.634  0.522E-01  0.522E-01
  -2.624  0.523E-01  0.523E-01
  -2.614  0.524E-01  0.524E-01
  -2.604  0.526E-01  0.526E-01
  -2.594  0.527E-01  0.527E-01
  -2.584  0.528E-01  0.528E-01
  -2.574  0.529E-01  0.529E-01
  -2.564  0.530E-01  0.530E-01
  -2.554  0.532E-01  0.532E-01
  -2.544  0.533E-01  0.533E-01
  -2.534  0.534E-01  0.534E-01
  -2.524  0.535E-01  0.535E-01
  -2.514  0.537E-01  0.537E-01
  -2.504  0.538E-01  0.538E-01
  -2.494  0.539E-01  0.539E-01
  -2.484  0.540E-01  0.540E-01
  -2.474  0.541E-01  0.541E-01
  -2.464  0.542E-01  0.542E-01
  -2.454  0.543E-01  0.543E-01
  -2.444  0.544E-01  0.544E-01
  -2.434  0.544E-01  0.544E-01
  -2.424  0.545E-01  0.545E-01
  -2.414  0.546E-01  0.546E-01
  -2.404  0.546E-01  0.546E-01
  -2.394  0.547E-01  0.547E-01
  -2.384  0.547E-01  0.547E-01
  -2.374  0.548E-01  0.548E-01
  -2.364  0.549E-01  0.549E-01
  -2.354  0.550E-01  0.550E-01
  -2.344  0.551E-01  0.551E-01
  -2.334  0.552E-01  0.552E-01
  -2.324  0.553E-01  0.553E-01
  -2.314  0.555E-01  0.555E-01
  -2.304  0.556E-01  0.556E-01
  -2.294  0.557E-01  0.557E-01
  -2.284  0.558E-01  0.558E-01
  -2.274  0.559E-01  0.559E-01
  -2.264  0.560E-01  0.560E-01
  -2.254  0.560E-01  0.560E-01
  -2.244  0.561E-01  0.561E-01
  -2.234  0.561E-01  0.561E-01
  -2.224  0.561E-01  0.561E-01
  -2.214  0.561E-01  0.561E-01
  -2.204  0.561E-01  0.561E-01
  -2.194  0.561E-01  0.561E-01
  -2.184  0.561E-01  0.561E-01
  -2.174  0.561E-01  0.561E-01
  -2.164  0.562E-01  0.562E-01
  -2.154  0.562E-01  0.562E-01
  -2.144  0.563E-01  0.563E-01
  -2.134  0.564E-01  0.564E-01
  -2.124  0.565E-01  0.565E-01
  -2.114  0.567E-01  0.567E-01
  -2.104  0.568E-01  0.568E-01
  -2.094  0.570E-01  0.570E-01
  -2.084  0.571E-01  0.571E-01
  -2.074  0.572E-01  0.572E-01
  -2.064  0.573E-01  0.573E-01
  -2.054  0.574E-01  0.574E-01
  -2.044  0.575E-01  0.575E-01
  -2.034  0.576E-01  0.576E-01
  -2.024  0.576E-01  0.576E-01
  -2.014  0.576E-01  0.576E-01
  -2.004  0.576E-01  0.576E-01
  -1.994  0.575E-01  0.575E-01
  -1.984  0.575E-01  0.575E-01
  -1.974  0.574E-01  0.574E-01
  -1.964  0.574E-01  0.574E-01
  -1.954  0.574E-01  0.574E-01
  -1.944  0.573E-01  0.573E-01
  -1.934  0.574E-01  0.574E-01
  -1.924  0.574E-01  0.574E-01
  -1.914  0.575E-01  0.575E-01
  -1.904  0.576E-01  0.576E-01
  -1.894  0.577E-01  0.577E-01
  -1.884  0.578E-01  0.578E-01
  -1.874  0.580E-01  0.580E-01
  -1.864  0.582E-01  0.582E-01
  -1.854  0.584E-01  0.584E-01
  -1.844  0.586E-01  0.586E-01
  -1.834  0.587E-01  0.587E-01
  -1.824  0.589E-01  0.589E-01
  -1.814  0.590E-01  0.590E-01
  -1.804  0.591E-01  0.591E-01
  -1.794  0.591E-01  0.591E-01
  -1.784  0.592E-01  0.592E-01
  -1.774  0.592E-01  0.592E-01
  -1.764  0.591E-01  0.591E-01
  -1.754  0.591E-01  0.591E-01
  -1.744  0.590E-01  0.590E-01
  -1.734  0.589E-01  0.589E-01
  -1.724  0.588E-01  0.588E-01
  -1.714  0.587E-01  0.587E-01
  -1.704  0.586E-01  0.586E-01
  -1.694  0.585E-01  0.585E-01
  -1.684  0.585E-01  0.585E-01
  -1.674  0.585E-01  0.585E-01
  -1.664  0.586E-01  0.586E-01
  -1.654  0.587E-01  0.587E-01
  -1.644  0.588E-01  0.588E-01
  -1.634  0.590E-01  0.590E-01
  -1.624  0.592E-01  0.592E-01
  -1.614  0.594E-01  0.594E-01
  -1.604  0.596E-01  0.596E-01
  -1.594  0.599E-01  0.599E-01
  -1.584  0.601E-01  0.601E-01
  -1.574  0.603E-01  0.603E-01
  -1.564  0.605E-01  0.605E-01
  -1.554  0.607E-01  0.607E-01
  -1.544  0.608E-01  0.608E-01
  -1.534  0.609E-01  0.609E-01
  -1.524  0.609E-01  0.609E-01
  -1.514  0.609E-01  0.609E-01
  -1.504  0.608E-01  0.608E-01
  -1.494  0.607E-01  0.607E-01
  -1.484  0.606E-01  0.606E-01
  -1.474  0.605E-01  0.605E-01
  -1.464  0.603E-01  0.603E-01
  -1.454  0.602E-01  0.602E-01
  -1.444  0.600E-01  0.600E-01
  -1.434  0.599E-01  0.599E-01
  -1.424  0.599E-01  0.599E-01
  -1.414  0.598E-01  0.598E-01
  -1.404  0.598E-01  0.598E-01
  -1.394  0.599E-01  0.599E-01
  -1.384  0.599E-01  0.599E-01
  -1.374  0.601E-01  0.601E-01
  -1.364  0.602E-01  0.602E-01
  -1.354  0.604E-01  0.604E-01
  -1.344  0.607E-01  0.607E-01
  -1.334  0.609E-01  0.609E-01
  -1.324  0.612E-01  0.612E-01
  -1.314  0.615E-01  0.615E-01
  -1.304  0.617E-01  0.617E-01
  -1.294  0.620E-01  0.620E-01
  -1.284  0.622E-01  0.622E-01
  -1.274  0.624E-01  0.624E-01
  -1.264  0.626E-01  0.626E-01
  -1.254  0.627E-01  0.627E-01
  -1.244  0.628E-01  0.628E-01
  -1.234  0.628E-01  0.628E-01
  -1.224  0.628E-01  0.628E-01
  -1.214  0.627E-01  0.627E-01
  -1.204  0.626E-01  0.626E-01
  -1.194  0.625E-01  0.625E-01
  -1.184  0.623E-01  0.623E-01
  -1.174  0.622E-01  0.622E-01
  -1.164  0.620E-01  0.620E-01
  -1.154  0.618E-01  0.618E-01
  -1.144  0.616E-01  0.616E-01
  -1.134  0.615E-01  0.615E-01
  -1.124  0.614E-01  0.614E-01
  -1.114  0.613E-01  0.613E-01
  -1.104  0.613E-01  0.613E-01
  -1.094  0.613E-01  0.613E-01
  -1.084  0.614E-01  0.614E-01
  -1.074  0.615E-01  0.615E-01
  -1.064  0.617E-01  0.617E-01
  -1.054  0.620E-01  0.620E-01
  -1.044  0.623E-01  0.623E-01
  -1.034  0.626E-01  0.626E-01
  -1.024  0.629E-01  0.629E-01
  -1.014  0.632E-01  0.632E-01
  -1.004  0.636E-01  0.636E-01
  -0.994  0.639E-01  0.639E-01
  -0.984  0.642E-01  0.642E-01
  -0.974  0.644E-01  0.644E-01
  -0.964  0.647E-01  0.647E-01
  -0.954  0.648E-01  0.648E-01
  -0.944  0.650E-01  0.650E-01
  -0.934  0.650E-01  0.650E-01
  -0.924  0.651E-01  0.651E-01
  -0.914  0.650E-01  0.650E-01
  -0.904  0.649E-01  0.649E-01
  -0.894  0.648E-01  0.648E-01
  -0.884  0.646E-01  0.646E-01
  -0.874  0.644E-01  0.644E-01
  -0.864  0.642E-01  0.642E-01
  -0.854  0.640E-01  0.640E-01
  -0.844  0.638E-01  0.638E-01
  -0.834  0.635E-01  0.635E-01
  -0.824  0.633E-01  0.633E-01
  -0.814  0.632E-01  0.632E-01
  -0.804  0.631E-01  0.631E-01
  -0.794  0.630E-01  0.630E-01
  -0.784  0.630E-01  0.630E-01
  -0.774  0.630E-01  0.630E-01
  -0.764  0.631E-01  0.631E-01
  -0.754  0.633E-01  0.633E-01
  -0.744  0.636E-01  0.636E-01
  -0.734  0.639E-01  0.639E-01
  -0.724  0.642E-01  0.642E-01
  -0.714  0.646E-01  0.646E-01
  -0.704  0.650E-01  0.650E-01
  -0.694  0.654E-01  0.654E-01
  -0.684  0.658E-01  0.658E-01
  -0.674  0.661E-01  0.661E-01
  -0.664  0.665E-01  0.665E-01
  -0.654  0.668E-01  0.668E-01
  -0.644  0.670E-01  0.670E-01
  -0.634  0.672E-01  0.672E-01
  -0.624  0.674E-01  0.674E-01
  -0.614  0.674E-01  0.674E-01
  -0.604  0.675E-01  0.675E-01
  -0.594  0.674E-01  0.674E-01
  -0.584  0.673E-01  0.673E-01
  -0.574  0.672E-01  0.672E-01
  -0.564  0.670E-01  0.670E-01
  -0.554  0.669E-01  0.669E-01
  -0.544  0.667E-01  0.667E-01
  -0.534  0.665E-01  0.665E-01
  -0.524  0.663E-01  0.663E-01
  -0.514  0.661E-01  0.661E-01
  -0.504  0.659E-01  0.659E-01
  -0.494  0.657E-01  0.657E-01
  -0.484  0.656E-01  0.656E-01
  -0.474  0.655E-01  0.655E-01
  -0.464  0.655E-01  0.655E-01
  -0.454  0.654E-01  0.654E-01
  -0.444  0.654E-01  0.654E-01
  -0.434  0.655E-01  0.655E-01
  -0.424  0.655E-01  0.655E-01
  -0.414  0.657E-01  0.657E-01
  -0.404  0.658E-01  0.658E-01
  -0.394  0.660E-01  0.660E-01
  -0.384  0.663E-01  0.663E-01
  -0.374  0.666E-01  0.666E-01
  -0.364  0.669E-01  0.669E-01
  -0.354  0.673E-01  0.673E-01
  -0.344  0.677E-01  0.677E-01
  -0.334  0.681E-01  0.681E-01
  -0.324  0.685E-01  0.685E-01
  -0.314  0.689E-01  0.689E-01
  -0.304  0.693E-01  0.693E-01
  -0.294  0.696E-01  0.696E-01
  -0.284  0.699E-01  0.699E-01
  -0.274  0.702E-01  0.702E-01
  -0.264  0.704E-01  0.704E-01
  -0.254  0.705E-01  0.705E-01
  -0.244  0.706E-01  0.706E-01
  -0.234  0.706E-01  0.706E-01
  -0.224  0.705E-01  0.705E-01
  -0.214  0.703E-01  0.703E-01
  -0.204  0.701E-01  0.701E-01
  -0.194  0.699E-01  0.699E-01
  -0.184  0.696E-01  0.696E-01
  -0.174  0.693E-01  0.693E-01
  -0.164  0.689E-01  0.689E-01
  -0.154  0.686E-01  0.686E-01
  -0.144  0.683E-01  0.683E-01
  -0.134  0.681E-01  0.681E-01
  -0.124  0.678E-01  0.678E-01
  -0.114  0.676E-01  0.676E-01
  -0.104  0.675E-01  0.675E-01
  -0.094  0.675E-01  0.675E-01
  -0.084  0.675E-01  0.675E-01
  -0.074  0.676E-01  0.676E-01
  -0.064  0.677E-01  0.677E-01
  -0.054  0.679E-01  0.679E-01
  -0.044  0.682E-01  0.682E-01
  -0.034  0.685E-01  0.685E-01
  -0.024  0.689E-01  0.689E-01
  -0.014  0.693E-01  0.693E-01
  -0.004  0.697E-01  0.697E-01
   0.006  0.701E-01  0.701E-01
   0.016  0.706E-01  0.706E-01
   0.026  0.710E-01  0.710E-01
   0.036  0.714E-01  0.714E-01
   0.046  0.718E-01  0.718E-01
   0.056  0.722E-01  0.722E-01
   0.066  0.726E-01  0.726E-01
   0.076  0.728E-01  0.728E-01
   0.086  0.731E-01  0.731E-01
   0.096  0.733E-01  0.733E-01
   0.106  0.734E-01  0.734E-01
   0.116  0.735E-01  0.735E-01
   0.126  0.735E-01  0.735E-01
   0.136  0.735E-01  0.735E-01
   0.146  0.735E-01  0.735E-01
   0.156  0.733E-01  0.733E-01
   0.166  0.732E-01  0.732E-01
   0.176  0.730E-01  0.730E-01
   0.186  0.727E-01  0.727E-01
   0.196  0.725E-01  0.725E-01
   0.206  0.722E-01  0.722E-01
   0.216  0.718E-01  0.718E-01
   0.226  0.715E-01  0.715E-01
   0.236  0.712E-01  0.712E-01
   0.246  0.710E-01  0.710E-01
   0.256  0.707E-01  0.707E-01
   0.266  0.705E-01  0.705E-01
   0.276  0.704E-01  0.704E-01
   0.286  0.703E-01  0.703E-01
   0.296  0.703E-01  0.703E-01
   0.306  0.704E-01  0.704E-01
   0.316  0.705E-01  0.705E-01
   0.326  0.707E-01  0.707E-01
   0.336  0.710E-01  0.710E-01
   0.346  0.714E-01  0.714E-01
   0.356  0.718E-01  0.718E-01
   0.366  0.722E-01  0.722E-01
   0.376  0.727E-01  0.727E-01
   0.386  0.732E-01  0.732E-01
   0.396  0.736E-01  0.736E-01
   0.406  0.741E-01  0.741E-01
   0.416  0.745E-01  0.745E-01
   0.426  0.749E-01  0.749E-01
   0.436  0.753E-01  0.753E-01
   0.446  0.756E-01  0.756E-01
   0.456  0.759E-01  0.759E-01
   0.466  0.761E-01  0.761E-01
   0.476  0.763E-01  0.763E-01
   0.486  0.764E-01  0.764E-01
   0.496  0.765E-01  0.765E-01
   0.506  0.765E-01  0.765E-01
   0.516  0.766E-01  0.766E-01
   0.526  0.766E-01  0.766E-01
   0.536  0.765E-01  0.765E-01
   0.546  0.765E-01  0.765E-01
   0.556  0.764E-01  0.764E-01
   0.566  0.764E-01  0.764E-01
   0.576  0.763E-01  0.763E-01
   0.586  0.761E-01  0.761E-01
   0.596  0.760E-01  0.760E-01
   0.606  0.758E-01  0.758E-01
   0.616  0.756E-01  0.756E-01
   0.626  0.754E-01  0.754E-01
   0.636  0.752E-01  0.752E-01
   0.646  0.750E-01  0.750E-01
   0.656  0.747E-01  0.747E-01
   0.666  0.744E-01  0.744E-01
   0.676  0.742E-01  0.742E-01
   0.686  0.740E-01  0.740E-01
   0.696  0.738E-01  0.738E-01
   0.706  0.737E-01  0.737E-01
   0.716  0.736E-01  0.736E-01
   0.726  0.736E-01  0.736E-01
   0.736  0.736E-01  0.736E-01
   0.746  0.738E-01  0.738E-01
   0.756  0.740E-01  0.740E-01
   0.766  0.743E-01  0.743E-01
   0.776  0.747E-01  0.747E-01
   0.786  0.752E-01  0.752E-01
   0.796  0.757E-01  0.757E-01
   0.806  0.763E-01  0.763E-01
   0.816  0.769E-01  0.769E-01
   0.826  0.775E-01  0.775E-01
   0.836  0.782E-01  0.782E-01
   0.846  0.788E-01  0.788E-01
   0.856  0.794E-01  0.794E-01
   0.866  0.800E-01  0.800E-01
   0.876  0.805E-01  0.805E-01
   0.886  0.809E-01  0.809E-01
   0.896  0.812E-01  0.812E-01
   0.906  0.814E-01  0.814E-01
   0.916  0.815E-01  0.815E-01
   0.926  0.815E-01  0.815E-01
   0.936  0.814E-01  0.814E-01
   0.946  0.813E-01  0.813E-01
   0.956  0.810E-01  0.810E-01
   0.966  0.807E-01  0.807E-01
   0.976  0.803E-01  0.803E-01
   0.986  0.799E-01  0.799E-01
   0.996  0.795E-01  0.795E-01
   1.006  0.791E-01  0.791E-01
   1.016  0.787E-01  0.787E-01
   1.026  0.783E-01  0.783E-01
   1.036  0.780E-01  0.780E-01
   1.046  0.777E-01  0.777E-01
   1.056  0.775E-01  0.775E-01
   1.066  0.773E-01  0.773E-01
   1.076  0.772E-01  0.772E-01
   1.086  0.772E-01  0.772E-01
   1.096  0.772E-01  0.772E-01
   1.106  0.772E-01  0.772E-01
   1.116  0.773E-01  0.773E-01
   1.126  0.774E-01  0.774E-01
   1.136  0.776E-01  0.776E-01
   1.146  0.777E-01  0.777E-01
   1.156  0.779E-01  0.779E-01
   1.166  0.782E-01  0.782E-01
   1.176  0.784E-01  0.784E-01
   1.186  0.787E-01  0.787E-01
   1.196  0.790E-01  0.790E-01
   1.206  0.793E-01  0.793E-01
   1.216  0.796E-01  0.796E-01
   1.226  0.800E-01  0.800E-01
   1.236  0.804E-01  0.804E-01
   1.246  0.808E-01  0.808E-01
   1.256  0.813E-01  0.813E-01
   1.266  0.817E-01  0.817E-01
   1.276  0.822E-01  0.822E-01
   1.286  0.826E-01  0.826E-01
   1.296  0.830E-01  0.830E-01
   1.306  0.834E-01  0.834E-01
   1.316  0.838E-01  0.838E-01
   1.326  0.841E-01  0.841E-01
   1.336  0.844E-01  0.844E-01
   1.346  0.846E-01  0.846E-01
   1.356  0.848E-01  0.848E-01
   1.366  0.848E-01  0.848E-01
   1.376  0.849E-01  0.849E-01
   1.386  0.848E-01  0.848E-01
   1.396  0.847E-01  0.847E-01
   1.406  0.845E-01  0.845E-01
   1.416  0.843E-01  0.843E-01
   1.426  0.841E-01  0.841E-01
   1.436  0.837E-01  0.837E-01
   1.446  0.834E-01  0.834E-01
   1.456  0.831E-01  0.831E-01
   1.466  0.827E-01  0.827E-01
   1.476  0.823E-01  0.823E-01
   1.486  0.820E-01  0.820E-01
   1.496  0.817E-01  0.817E-01
   1.506  0.814E-01  0.814E-01
   1.516  0.811E-01  0.811E-01
   1.526  0.809E-01  0.809E-01
   1.536  0.808E-01  0.808E-01
   1.546  0.807E-01  0.807E-01
   1.556  0.806E-01  0.806E-01
   1.566  0.806E-01  0.806E-01
   1.576  0.807E-01  0.807E-01
   1.586  0.808E-01  0.808E-01
   1.596  0.810E-01  0.810E-01
   1.606  0.813E-01  0.813E-01
   1.616  0.816E-01  0.816E-01
   1.626  0.819E-01  0.819E-01
   1.636  0.823E-01  0.823E-01
   1.646  0.826E-01  0.826E-01
   1.656  0.830E-01  0.830E-01
   1.666  0.834E-01  0.834E-01
   1.676  0.839E-01  0.839E-01
   1.686  0.843E-01  0.843E-01
   1.696  0.847E-01  0.847E-01
   1.706  0.851E-01  0.851E-01
   1.716  0.855E-01  0.855E-01
   1.726  0.859E-01  0.859E-01
   1.736  0.862E-01  0.862E-01
   1.746  0.866E-01  0.866E-01
   1.756  0.869E-01  0.869E-01
   1.766  0.872E-01  0.872E-01
   1.776  0.874E-01  0.874E-01
   1.786  0.877E-01  0.877E-01
   1.796  0.879E-01  0.879E-01
   1.806  0.881E-01  0.881E-01
   1.816  0.883E-01  0.883E-01
   1.826  0.884E-01  0.884E-01
   1.836  0.885E-01  0.885E-01
   1.846  0.886E-01  0.886E-01
   1.856  0.886E-01  0.886E-01
   1.866  0.886E-01  0.886E-01
   1.876  0.885E-01  0.885E-01
   1.886  0.884E-01  0.884E-01
   1.896  0.883E-01  0.883E-01
   1.906  0.880E-01  0.880E-01
   1.916  0.878E-01  0.878E-01
   1.926  0.874E-01  0.874E-01
   1.936  0.870E-01  0.870E-01
   1.946  0.866E-01  0.866E-01
   1.956  0.861E-01  0.861E-01
   1.966  0.856E-01  0.856E-01
   1.976  0.851E-01  0.851E-01
   1.986  0.846E-01  0.846E-01
   1.996  0.842E-01  0.842E-01
   2.006  0.837E-01  0.837E-01
   2.016  0.833E-01  0.833E-01
   2.026  0.830E-01  0.830E-01
   2.036  0.828E-01  0.828E-01
   2.046  0.827E-01  0.827E-01
   2.056  0.827E-01  0.827E-01
   2.066  0.828E-01  0.828E-01
   2.076  0.831E-01  0.831E-01
   2.086  0.835E-01  0.835E-01
   2.096  0.840E-01  0.840E-01
   2.106  0.846E-01  0.846E-01
   2.116  0.853E-01  0.853E-01
   2.126  0.861E-01  0.861E-01
   2.136  0.869E-01  0.869E-01
   2.146  0.877E-01  0.877E-01
   2.156  0.885E-01  0.885E-01
   2.166  0.893E-01  0.893E-01
   2.176  0.900E-01  0.900E-01
   2.186  0.907E-01  0.907E-01
   2.196  0.912E-01  0.912E-01
   2.206  0.916E-01  0.916E-01
   2.216  0.920E-01  0.920E-01
   2.226  0.922E-01  0.922E-01
   2.236  0.923E-01  0.923E-01
   2.246  0.923E-01  0.923E-01
   2.256  0.922E-01  0.922E-01
   2.266  0.921E-01  0.921E-01
   2.276  0.919E-01  0.919E-01
   2.286  0.917E-01  0.917E-01
   2.296  0.914E-01  0.914E-01
   2.306  0.911E-01  0.911E-01
   2.316  0.908E-01  0.908E-01
   2.326  0.906E-01  0.906E-01
   2.336  0.903E-01  0.903E-01
   2.346  0.901E-01  0.901E-01
   2.356  0.899E-01  0.899E-01
   2.366  0.897E-01  0.897E-01
   2.376  0.895E-01  0.895E-01
   2.386  0.894E-01  0.894E-01
   2.396  0.892E-01  0.892E-01
   2.406  0.891E-01  0.891E-01
   2.416  0.890E-01  0.890E-01
   2.426  0.890E-01  0.890E-01
   2.436  0.889E-01  0.889E-01
   2.446  0.888E-01  0.888E-01
   2.456  0.887E-01  0.887E-01
   2.466  0.886E-01  0.886E-01
   2.476  0.885E-01  0.885E-01
   2.486  0.884E-01  0.884E-01
   2.496  0.882E-01  0.882E-01
   2.506  0.881E-01  0.881E-01
   2.516  0.880E-01  0.880E-01
   2.526  0.878E-01  0.878E-01
   2.536  0.877E-01  0.877E-01
   2.546  0.876E-01  0.876E-01
   2.556  0.875E-01  0.875E-01
   2.566  0.875E-01  0.875E-01
   2.576  0.875E-01  0.875E-01
   2.586  0.875E-01  0.875E-01
   2.596  0.876E-01  0.876E-01
   2.606  0.878E-01  0.878E-01
   2.616  0.880E-01  0.880E-01
   2.626  0.883E-01  0.883E-01
   2.636  0.887E-01  0.887E-01
   2.646  0.891E-01  0.891E-01
   2.656  0.896E-01  0.896E-01
   2.666  0.902E-01  0.902E-01
   2.676  0.908E-01  0.908E-01
   2.686  0.914E-01  0.914E-01
   2.696  0.920E-01  0.920E-01
   2.706  0.925E-01  0.925E-01
   2.716  0.931E-01  0.931E-01
   2.726  0.936E-01  0.936E-01
   2.736  0.941E-01  0.941E-01
   2.746  0.945E-01  0.945E-01
   2.756  0.948E-01  0.948E-01
   2.766  0.951E-01  0.951E-01
   2.776  0.952E-01  0.952E-01
   2.786  0.953E-01  0.953E-01
   2.796  0.952E-01  0.952E-01
   2.806  0.951E-01  0.951E-01
   2.816  0.949E-01  0.949E-01
   2.826  0.946E-01  0.946E-01
   2.836  0.942E-01  0.942E-01
   2.846  0.938E-01  0.938E-01
   2.856  0.933E-01  0.933E-01
   2.866  0.928E-01  0.928E-01
   2.876  0.923E-01  0.923E-01
   2.886  0.918E-01  0.918E-01
   2.896  0.912E-01  0.912E-01
   2.906  0.907E-01  0.907E-01
   2.916  0.903E-01  0.903E-01
   2.926  0.898E-01  0.898E-01
   2.936  0.894E-01  0.894E-01
   2.946  0.891E-01  0.891E-01
   2.956  0.888E-01  0.888E-01
   2.966  0.885E-01  0.885E-01
   2.976  0.884E-01  0.884E-01
   2.986  0.882E-01  0.882E-01
   2.996  0.881E-01  0.881E-01
   3.006  0.881E-01  0.881E-01
   3.016  0.881E-01  0.881E-01
   3.026  0.881E-01  0.881E-01
   3.036  0.881E-01  0.881E-01
   3.046  0.882E-01  0.882E-01
   3.056  0.882E-01  0.882E-01
   3.066  0.883E-01  0.883E-01
   3.076  0.883E-01  0.883E-01
   3.086  0.884E-01  0.884E-01
   3.096  0.885E-01  0.885E-01
   3.106  0.886E-01  0.886E-01
   3.116  0.886E-01  0.886E-01
   3.126  0.888E-01  0.888E-01
   3.136  0.889E-01  0.889E-01
   3.146  0.891E-01  0.891E-01
   3.156  0.893E-01  0.893E-01
   3.166  0.895E-01  0.895E-01
   3.176  0.898E-01  0.898E-01
   3.186  0.901E-01  0.901E-01
   3.196  0.904E-01  0.904E-01
   3.206  0.907E-01  0.907E-01
   3.216  0.911E-01  0.911E-01
   3.226  0.914E-01  0.914E-01
   3.236  0.917E-01  0.917E-01
   3.246  0.920E-01  0.920E-01
   3.256  0.923E-01  0.923E-01
   3.266  0.924E-01  0.924E-01
   3.276  0.925E-01  0.925E-01
   3.286  0.926E-01  0.926E-01
   3.296  0.925E-01  0.925E-01
   3.306  0.923E-01  0.923E-01
   3.316  0.920E-01  0.920E-01
   3.326  0.917E-01  0.917E-01
   3.336  0.912E-01  0.912E-01
   3.346  0.906E-01  0.906E-01
   3.356  0.900E-01  0.900E-01
   3.366  0.893E-01  0.893E-01
   3.376  0.885E-01  0.885E-01
   3.386  0.878E-01  0.878E-01
   3.396  0.870E-01  0.870E-01
   3.406  0.862E-01  0.862E-01
   3.416  0.854E-01  0.854E-01
   3.426  0.847E-01  0.847E-01
   3.436  0.841E-01  0.841E-01
   3.446  0.835E-01  0.835E-01
   3.456  0.829E-01  0.829E-01
   3.466  0.825E-01  0.825E-01
   3.476  0.821E-01  0.821E-01
   3.486  0.818E-01  0.818E-01
   3.496  0.817E-01  0.817E-01
   3.506  0.816E-01  0.816E-01
   3.516  0.816E-01  0.816E-01
   3.526  0.817E-01  0.817E-01
   3.536  0.819E-01  0.819E-01
   3.546  0.821E-01  0.821E-01
   3.556  0.825E-01  0.825E-01
   3.566  0.829E-01  0.829E-01
   3.576  0.835E-01  0.835E-01
   3.586  0.841E-01  0.841E-01
   3.596  0.847E-01  0.847E-01
   3.606  0.855E-01  0.855E-01
   3.616  0.863E-01  0.863E-01
   3.626  0.871E-01  0.871E-01
   3.636  0.880E-01  0.880E-01
   3.646  0.889E-01  0.889E-01
   3.656  0.898E-01  0.898E-01
   3.666  0.907E-01  0.907E-01
   3.676  0.916E-01  0.916E-01
   3.686  0.924E-01  0.924E-01
   3.696  0.931E-01  0.931E-01
   3.706  0.938E-01  0.938E-01
   3.716  0.944E-01  0.944E-01
   3.726  0.950E-01  0.950E-01
   3.736  0.954E-01  0.954E-01
   3.746  0.958E-01  0.958E-01
   3.756  0.962E-01  0.962E-01
   3.766  0.965E-01  0.965E-01
   3.776  0.967E-01  0.967E-01
   3.786  0.970E-01  0.970E-01
   3.796  0.972E-01  0.972E-01
   3.806  0.974E-01  0.974E-01
   3.816  0.976E-01  0.976E-01
   3.826  0.978E-01  0.978E-01
   3.836  0.981E-01  0.981E-01
   3.846  0.983E-01  0.983E-01
   3.856  0.985E-01  0.985E-01
   3.866  0.987E-01  0.987E-01
   3.876  0.989E-01  0.989E-01
   3.886  0.991E-01  0.991E-01
   3.896  0.993E-01  0.993E-01
   3.906  0.994E-01  0.994E-01
   3.916  0.994E-01  0.994E-01
   3.926  0.995E-01  0.995E-01
   3.936  0.995E-01  0.995E-01
   3.946  0.994E-01  0.994E-01
   3.956  0.993E-01  0.993E-01
   3.966  0.992E-01  0.992E-01
   3.976  0.991E-01  0.991E-01
   3.986  0.989E-01  0.989E-01
   3.996  0.988E-01  0.988E-01
   4.006  0.986E-01  0.986E-01
   4.016  0.984E-01  0.984E-01
   4.026  0.983E-01  0.983E-01
   4.036  0.981E-01  0.981E-01
   4.046  0.979E-01  0.979E-01
   4.056  0.978E-01  0.978E-01
   4.066  0.976E-01  0.976E-01
   4.076  0.975E-01  0.975E-01
   4.086  0.973E-01  0.973E-01
   4.096  0.972E-01  0.972E-01
   4.106  0.970E-01  0.970E-01
   4.116  0.969E-01  0.969E-01
   4.126  0.968E-01  0.968E-01
   4.136  0.968E-01  0.968E-01
   4.146  0.967E-01  0.967E-01
   4.156  0.967E-01  0.967E-01
   4.166  0.968E-01  0.968E-01
   4.176  0.970E-01  0.970E-01
   4.186  0.972E-01  0.972E-01
   4.196  0.975E-01  0.975E-01
   4.206  0.979E-01  0.979E-01
   4.216  0.983E-01  0.983E-01
   4.226  0.989E-01  0.989E-01
   4.236  0.995E-01  0.995E-01
   4.246  0.100E+00  0.100E+00
   4.256  0.101E+00  0.101E+00
   4.266  0.102E+00  0.102E+00
   4.276  0.102E+00  0.102E+00
   4.286  0.103E+00  0.103E+00
   4.296  0.104E+00  0.104E+00
   4.306  0.105E+00  0.105E+00
   4.316  0.106E+00  0.106E+00
   4.326  0.106E+00  0.106E+00
   4.336  0.107E+00  0.107E+00
   4.346  0.108E+00  0.108E+00
   4.356  0.108E+00  0.108E+00
   4.366  0.108E+00  0.108E+00
   4.376  0.108E+00  0.108E+00
   4.386  0.108E+00  0.108E+00
   4.396  0.108E+00  0.108E+00
   4.406  0.108E+00  0.108E+00
   4.416  0.108E+00  0.108E+00
   4.426  0.107E+00  0.107E+00
   4.436  0.107E+00  0.107E+00
   4.446  0.106E+00  0.106E+00
   4.456  0.106E+00  0.106E+00
   4.466  0.105E+00  0.105E+00
   4.476  0.104E+00  0.104E+00
   4.486  0.103E+00  0.103E+00
   4.496  0.103E+00  0.103E+00
   4.506  0.102E+00  0.102E+00
   4.516  0.101E+00  0.101E+00
   4.526  0.101E+00  0.101E+00
   4.536  0.100E+00  0.100E+00
   4.546  0.999E-01  0.999E-01
   4.556  0.997E-01  0.997E-01
   4.566  0.995E-01  0.995E-01
   4.576  0.994E-01  0.994E-01
   4.586  0.994E-01  0.994E-01
   4.596  0.995E-01  0.995E-01
   4.606  0.996E-01  0.996E-01
   4.616  0.997E-01  0.997E-01
   4.626  0.999E-01  0.999E-01
   4.636  0.100E+00  0.100E+00
   4.646  0.100E+00  0.100E+00
   4.656  0.101E+00  0.101E+00
   4.666  0.101E+00  0.101E+00
   4.676  0.101E+00  0.101E+00
   4.686  0.101E+00  0.101E+00
   4.696  0.102E+00  0.102E+00
   4.706  0.102E+00  0.102E+00
   4.716  0.102E+00  0.102E+00
   4.726  0.102E+00  0.102E+00
   4.736  0.103E+00  0.103E+00
   4.746  0.103E+00  0.103E+00
   4.756  0.103E+00  0.103E+00
   4.766  0.103E+00  0.103E+00
   4.776  0.104E+00  0.104E+00
   4.786  0.104E+00  0.104E+00
   4.796  0.104E+00  0.104E+00
   4.806  0.104E+00  0.104E+00
   4.816  0.105E+00  0.105E+00
   4.826  0.105E+00  0.105E+00
   4.836  0.105E+00  0.105E+00
   4.846  0.105E+00  0.105E+00
   4.856  0.105E+00  0.105E+00
   4.866  0.106E+00  0.106E+00
   4.876  0.106E+00  0.106E+00
   4.886  0.106E+00  0.106E+00
   4.896  0.106E+00  0.106E+00
   4.906  0.106E+00  0.106E+00
   4.916  0.106E+00  0.106E+00
   4.926  0.106E+00  0.106E+00
   4.936  0.106E+00  0.106E+00
   4.946  0.106E+00  0.106E+00
   4.956  0.106E+00  0.106E+00
   4.966  0.106E+00  0.106E+00
   4.976  0.105E+00  0.105E+00
   4.986  0.105E+00  0.105E+00
   4.996  0.104E+00  0.104E+00
   5.006  0.104E+00  0.104E+00
   5.016  0.103E+00  0.103E+00
   5.026  0.102E+00  0.102E+00
   5.036  0.102E+00  0.102E+00
   5.046  0.101E+00  0.101E+00
   5.056  0.100E+00  0.100E+00
   5.066  0.999E-01  0.999E-01
   5.076  0.994E-01  0.994E-01
   5.086  0.990E-01  0.990E-01
   5.096  0.986E-01  0.986E-01
   5.106  0.984E-01  0.984E-01
   5.116  0.982E-01  0.982E-01
   5.126  0.981E-01  0.981E-01
   5.136  0.981E-01  0.981E-01
   5.146  0.981E-01  0.981E-01
   5.156  0.982E-01  0.982E-01
   5.166  0.984E-01  0.984E-01
   5.176  0.985E-01  0.985E-01
   5.186  0.988E-01  0.988E-01
   5.196  0.990E-01  0.990E-01
   5.206  0.993E-01  0.993E-01
   5.216  0.995E-01  0.995E-01
   5.226  0.998E-01  0.998E-01
   5.236  0.100E+00  0.100E+00
   5.246  0.100E+00  0.100E+00
   5.256  0.100E+00  0.100E+00
   5.266  0.100E+00  0.100E+00
   5.276  0.101E+00  0.101E+00
   5.286  0.101E+00  0.101E+00
   5.296  0.101E+00  0.101E+00
   5.306  0.100E+00  0.100E+00
   5.316  0.100E+00  0.100E+00
   5.326  0.100E+00  0.100E+00
   5.336  0.999E-01  0.999E-01
   5.346  0.996E-01  0.996E-01
   5.356  0.993E-01  0.993E-01
   5.366  0.990E-01  0.990E-01
   5.376  0.986E-01  0.986E-01
   5.386  0.982E-01  0.982E-01
   5.396  0.977E-01  0.977E-01
   5.406  0.972E-01  0.972E-01
   5.416  0.967E-01  0.967E-01
   5.426  0.962E-01  0.962E-01
   5.436  0.957E-01  0.957E-01
   5.446  0.952E-01  0.952E-01
   5.456  0.948E-01  0.948E-01
   5.466  0.944E-01  0.944E-01
   5.476  0.940E-01  0.940E-01
   5.486  0.938E-01  0.938E-01
   5.496  0.936E-01  0.936E-01
   5.506  0.936E-01  0.936E-01
   5.516  0.936E-01  0.936E-01
   5.526  0.938E-01  0.938E-01
   5.536  0.941E-01  0.941E-01
   5.546  0.945E-01  0.945E-01
   5.556  0.950E-01  0.950E-01
   5.566  0.956E-01  0.956E-01
   5.576  0.962E-01  0.962E-01
   5.586  0.969E-01  0.969E-01
   5.596  0.976E-01  0.976E-01
   5.606  0.982E-01  0.982E-01
   5.616  0.988E-01  0.988E-01
   5.626  0.993E-01  0.993E-01
   5.636  0.998E-01  0.998E-01
   5.646  0.100E+00  0.100E+00
   5.656  0.100E+00  0.100E+00
   5.666  0.100E+00  0.100E+00
   5.676  0.100E+00  0.100E+00
   5.686  0.997E-01  0.997E-01
   5.696  0.992E-01  0.992E-01
   5.706  0.986E-01  0.986E-01
   5.716  0.979E-01  0.979E-01
   5.726  0.971E-01  0.971E-01
   5.736  0.963E-01  0.963E-01
   5.746  0.954E-01  0.954E-01
   5.756  0.946E-01  0.946E-01
   5.766  0.937E-01  0.937E-01
   5.776  0.928E-01  0.928E-01
   5.786  0.920E-01  0.920E-01
   5.796  0.913E-01  0.913E-01
   5.806  0.906E-01  0.906E-01
   5.816  0.900E-01  0.900E-01
   5.826  0.895E-01  0.895E-01
   5.836  0.891E-01  0.891E-01
   5.846  0.888E-01  0.888E-01
   5.856  0.886E-01  0.886E-01
   5.866  0.884E-01  0.884E-01
   5.876  0.883E-01  0.883E-01
   5.886  0.883E-01  0.883E-01
   5.896  0.883E-01  0.883E-01
   5.906  0.884E-01  0.884E-01
   5.916  0.886E-01  0.886E-01
   5.926  0.887E-01  0.887E-01
   5.936  0.890E-01  0.890E-01
   5.946  0.892E-01  0.892E-01
   5.956  0.895E-01  0.895E-01
   5.966  0.898E-01  0.898E-01
   5.976  0.901E-01  0.901E-01
   5.986  0.903E-01  0.903E-01
   5.996  0.906E-01  0.906E-01
   6.006  0.909E-01  0.909E-01
   6.016  0.912E-01  0.912E-01
   6.026  0.914E-01  0.914E-01
   6.036  0.916E-01  0.916E-01
   6.046  0.918E-01  0.918E-01
   6.056  0.919E-01  0.919E-01
   6.066  0.920E-01  0.920E-01
   6.076  0.920E-01  0.920E-01
   6.086  0.919E-01  0.919E-01
   6.096  0.919E-01  0.919E-01
   6.106  0.917E-01  0.917E-01
   6.116  0.915E-01  0.915E-01
   6.126  0.913E-01  0.913E-01
   6.136  0.910E-01  0.910E-01
   6.146  0.908E-01  0.908E-01
   6.156  0.905E-01  0.905E-01
   6.166  0.903E-01  0.903E-01
   6.176  0.901E-01  0.901E-01
   6.186  0.900E-01  0.900E-01
   6.196  0.900E-01  0.900E-01
   6.206  0.900E-01  0.900E-01
   6.216  0.902E-01  0.902E-01
   6.226  0.904E-01  0.904E-01
   6.236  0.907E-01  0.907E-01
   6.246  0.912E-01  0.912E-01
   6.256  0.917E-01  0.917E-01
   6.266  0.923E-01  0.923E-01
   6.276  0.930E-01  0.930E-01
   6.286  0.937E-01  0.937E-01
   6.296  0.944E-01  0.944E-01
   6.306  0.951E-01  0.951E-01
   6.316  0.958E-01  0.958E-01
   6.326  0.965E-01  0.965E-01
   6.336  0.970E-01  0.970E-01
   6.346  0.976E-01  0.976E-01
   6.356  0.980E-01  0.980E-01
   6.366  0.984E-01  0.984E-01
   6.376  0.987E-01  0.987E-01
   6.386  0.989E-01  0.989E-01
   6.396  0.990E-01  0.990E-01
   6.406  0.991E-01  0.991E-01
   6.416  0.992E-01  0.992E-01
   6.426  0.992E-01  0.992E-01
   6.436  0.993E-01  0.993E-01
   6.446  0.993E-01  0.993E-01
   6.456  0.994E-01  0.994E-01
   6.466  0.996E-01  0.996E-01
   6.476  0.998E-01  0.998E-01
   6.486  0.100E+00  0.100E+00
   6.496  0.100E+00  0.100E+00
   6.506  0.101E+00  0.101E+00
   6.516  0.101E+00  0.101E+00
   6.526  0.102E+00  0.102E+00
   6.536  0.103E+00  0.103E+00
   6.546  0.103E+00  0.103E+00
   6.556  0.104E+00  0.104E+00
   6.566  0.105E+00  0.105E+00
   6.576  0.105E+00  0.105E+00
   6.586  0.106E+00  0.106E+00
   6.596  0.107E+00  0.107E+00
   6.606  0.108E+00  0.108E+00
   6.616  0.108E+00  0.108E+00
   6.626  0.109E+00  0.109E+00
   6.636  0.109E+00  0.109E+00
   6.646  0.110E+00  0.110E+00
   6.656  0.110E+00  0.110E+00
   6.666  0.111E+00  0.111E+00
   6.676  0.111E+00  0.111E+00
   6.686  0.112E+00  0.112E+00
   6.696  0.112E+00  0.112E+00
   6.706  0.112E+00  0.112E+00
   6.716  0.113E+00  0.113E+00
   6.726  0.113E+00  0.113E+00
   6.736  0.114E+00  0.114E+00
   6.746  0.114E+00  0.114E+00
   6.756  0.114E+00  0.114E+00
   6.766  0.115E+00  0.115E+00
   6.776  0.115E+00  0.115E+00
   6.786  0.115E+00  0.115E+00
   6.796  0.116E+00  0.116E+00
   6.806  0.116E+00  0.116E+00
   6.816  0.116E+00  0.116E+00
   6.826  0.116E+00  0.116E+00
   6.836  0.116E+00  0.116E+00
   6.846  0.116E+00  0.116E+00
   6.856  0.116E+00  0.116E+00
   6.866  0.116E+00  0.116E+00
   6.876  0.116E+00  0.116E+00
   6.886  0.116E+00  0.116E+00
   6.896  0.115E+00  0.115E+00
   6.906  0.115E+00  0.115E+00
   6.916  0.115E+00  0.115E+00
   6.926  0.115E+00  0.115E+00
   6.936  0.115E+00  0.115E+00
   6.946  0.114E+00  0.114E+00
   6.956  0.114E+00  0.114E+00
   6.966  0.114E+00  0.114E+00
   6.976  0.114E+00  0.114E+00
   6.986  0.114E+00  0.114E+00
   6.996  0.114E+00  0.114E+00
   7.006  0.114E+00  0.114E+00
   7.016  0.114E+00  0.114E+00
   7.026  0.113E+00  0.113E+00
   7.036  0.113E+00  0.113E+00
   7.046  0.113E+00  0.113E+00
   7.056  0.113E+00  0.113E+00
   7.066  0.113E+00  0.113E+00
   7.076  0.112E+00  0.112E+00
   7.086  0.112E+00  0.112E+00
   7.096  0.112E+00  0.112E+00
   7.106  0.111E+00  0.111E+00
   7.116  0.111E+00  0.111E+00
   7.126  0.110E+00  0.110E+00
   7.136  0.110E+00  0.110E+00
   7.146  0.109E+00  0.109E+00
   7.156  0.108E+00  0.108E+00
   7.166  0.108E+00  0.108E+00
   7.176  0.107E+00  0.107E+00
   7.186  0.106E+00  0.106E+00
   7.196  0.106E+00  0.106E+00
   7.206  0.105E+00  0.105E+00
   7.216  0.105E+00  0.105E+00
   7.226  0.104E+00  0.104E+00
   7.236  0.104E+00  0.104E+00
   7.246  0.103E+00  0.103E+00
   7.256  0.103E+00  0.103E+00
   7.266  0.103E+00  0.103E+00
   7.276  0.103E+00  0.103E+00
   7.286  0.103E+00  0.103E+00
   7.296  0.102E+00  0.102E+00
   7.306  0.102E+00  0.102E+00
   7.316  0.102E+00  0.102E+00
   7.326  0.102E+00  0.102E+00
   7.336  0.102E+00  0.102E+00
   7.346  0.102E+00  0.102E+00
   7.356  0.102E+00  0.102E+00
   7.366  0.102E+00  0.102E+00
   7.376  0.102E+00  0.102E+00
   7.386  0.102E+00  0.102E+00
   7.396  0.101E+00  0.101E+00
   7.406  0.101E+00  0.101E+00
   7.416  0.101E+00  0.101E+00
   7.426  0.101E+00  0.101E+00
   7.436  0.101E+00  0.101E+00
   7.446  0.101E+00  0.101E+00
   7.456  0.101E+00  0.101E+00
   7.466  0.101E+00  0.101E+00
   7.476  0.102E+00  0.102E+00
   7.486  0.102E+00  0.102E+00
   7.496  0.103E+00  0.103E+00
   7.506  0.104E+00  0.104E+00
   7.516  0.105E+00  0.105E+00
   7.526  0.106E+00  0.106E+00
   7.536  0.107E+00  0.107E+00
   7.546  0.108E+00  0.108E+00
   7.556  0.110E+00  0.110E+00
   7.566  0.111E+00  0.111E+00
   7.576  0.113E+00  0.113E+00
   7.586  0.114E+00  0.114E+00
   7.596  0.116E+00  0.116E+00
   7.606  0.117E+00  0.117E+00
   7.616  0.118E+00  0.118E+00
   7.626  0.119E+00  0.119E+00
   7.636  0.120E+00  0.120E+00
   7.646  0.121E+00  0.121E+00
   7.656  0.122E+00  0.122E+00
   7.666  0.123E+00  0.123E+00
   7.676  0.123E+00  0.123E+00
   7.686  0.124E+00  0.124E+00
   7.696  0.124E+00  0.124E+00
   7.706  0.124E+00  0.124E+00
   7.716  0.124E+00  0.124E+00
   7.726  0.124E+00  0.124E+00
   7.736  0.124E+00  0.124E+00
   7.746  0.124E+00  0.124E+00
   7.756  0.124E+00  0.124E+00
   7.766  0.124E+00  0.124E+00
   7.776  0.124E+00  0.124E+00
   7.786  0.124E+00  0.124E+00
   7.796  0.124E+00  0.124E+00
   7.806  0.124E+00  0.124E+00
   7.816  0.123E+00  0.123E+00
   7.826  0.123E+00  0.123E+00
   7.836  0.123E+00  0.123E+00
   7.846  0.123E+00  0.123E+00
   7.856  0.122E+00  0.122E+00
   7.866  0.122E+00  0.122E+00
   7.876  0.122E+00  0.122E+00
   7.886  0.122E+00  0.122E+00
   7.896  0.122E+00  0.122E+00
   7.906  0.122E+00  0.122E+00
   7.916  0.122E+00  0.122E+00
   7.926  0.122E+00  0.122E+00
   7.936  0.122E+00  0.122E+00
   7.946  0.123E+00  0.123E+00
   7.956  0.123E+00  0.123E+00
   7.966  0.124E+00  0.124E+00
   7.976  0.124E+00  0.124E+00
   7.986  0.125E+00  0.125E+00
   7.996  0.126E+00  0.126E+00
   8.006  0.127E+00  0.127E+00
   8.016  0.128E+00  0.128E+00
   8.026  0.129E+00  0.129E+00
   8.036  0.130E+00  0.130E+00
   8.046  0.131E+00  0.131E+00
   8.056  0.133E+00  0.133E+00
   8.066  0.134E+00  0.134E+00
   8.076  0.135E+00  0.135E+00
   8.086  0.136E+00  0.136E+00
   8.096  0.137E+00  0.137E+00
   8.106  0.138E+00  0.138E+00
   8.116  0.139E+00  0.139E+00
   8.126  0.139E+00  0.139E+00
   8.136  0.140E+00  0.140E+00
   8.146  0.140E+00  0.140E+00
   8.156  0.140E+00  0.140E+00
   8.166  0.140E+00  0.140E+00
   8.176  0.140E+00  0.140E+00
   8.186  0.140E+00  0.140E+00
   8.196  0.139E+00  0.139E+00
   8.206  0.138E+00  0.138E+00
   8.216  0.137E+00  0.137E+00
   8.226  0.136E+00  0.136E+00
   8.236  0.135E+00  0.135E+00
   8.246  0.134E+00  0.134E+00
   8.256  0.133E+00  0.133E+00
   8.266  0.132E+00  0.132E+00
   8.276  0.131E+00  0.131E+00
   8.286  0.130E+00  0.130E+00
   8.296  0.128E+00  0.128E+00
   8.306  0.128E+00  0.128E+00
   8.316  0.127E+00  0.127E+00
   8.326  0.126E+00  0.126E+00
   8.336  0.125E+00  0.125E+00
   8.346  0.124E+00  0.124E+00
   8.356  0.124E+00  0.124E+00
   8.366  0.123E+00  0.123E+00
   8.376  0.123E+00  0.123E+00
   8.386  0.122E+00  0.122E+00
   8.396  0.122E+00  0.122E+00
   8.406  0.121E+00  0.121E+00
   8.416  0.121E+00  0.121E+00
   8.426  0.121E+00  0.121E+00
   8.436  0.121E+00  0.121E+00
   8.446  0.121E+00  0.121E+00
   8.456  0.121E+00  0.121E+00
   8.466  0.121E+00  0.121E+00
   8.476  0.121E+00  0.121E+00
   8.486  0.121E+00  0.121E+00
   8.496  0.121E+00  0.121E+00
   8.506  0.121E+00  0.121E+00
   8.516  0.121E+00  0.121E+00
   8.526  0.121E+00  0.121E+00
   8.536  0.122E+00  0.122E+00
   8.546  0.122E+00  0.122E+00
   8.556  0.122E+00  0.122E+00
   8.566  0.122E+00  0.122E+00
   8.576  0.123E+00  0.123E+00
   8.586  0.123E+00  0.123E+00
   8.596  0.124E+00  0.124E+00
   8.606  0.124E+00  0.124E+00
   8.616  0.125E+00  0.125E+00
   8.626  0.125E+00  0.125E+00
   8.636  0.126E+00  0.126E+00
   8.646  0.126E+00  0.126E+00
   8.656  0.127E+00  0.127E+00
   8.666  0.127E+00  0.127E+00
   8.676  0.128E+00  0.128E+00
   8.686  0.128E+00  0.128E+00
   8.696  0.128E+00  0.128E+00
   8.706  0.128E+00  0.128E+00
   8.716  0.128E+00  0.128E+00
   8.726  0.128E+00  0.128E+00
   8.736  0.128E+00  0.128E+00
   8.746  0.128E+00  0.128E+00
   8.756  0.128E+00  0.128E+00
   8.766  0.127E+00  0.127E+00
   8.776  0.127E+00  0.127E+00
   8.786  0.127E+00  0.127E+00
   8.796  0.126E+00  0.126E+00
   8.806  0.125E+00  0.125E+00
   8.816  0.125E+00  0.125E+00
   8.826  0.124E+00  0.124E+00
   8.836  0.124E+00  0.124E+00
   8.846  0.123E+00  0.123E+00
   8.856  0.123E+00  0.123E+00
   8.866  0.122E+00  0.122E+00
   8.876  0.122E+00  0.122E+00
   8.886  0.122E+00  0.122E+00
   8.896  0.121E+00  0.121E+00
   8.906  0.121E+00  0.121E+00
   8.916  0.121E+00  0.121E+00
   8.926  0.121E+00  0.121E+00
   8.936  0.120E+00  0.120E+00
   8.946  0.120E+00  0.120E+00
   8.956  0.120E+00  0.120E+00
   8.966  0.120E+00  0.120E+00
   8.976  0.119E+00  0.119E+00
   8.986  0.119E+00  0.119E+00
   8.996  0.119E+00  0.119E+00
   9.006  0.119E+00  0.119E+00
   9.016  0.118E+00  0.118E+00
   9.026  0.118E+00  0.118E+00
   9.036  0.118E+00  0.118E+00
   9.046  0.117E+00  0.117E+00
   9.056  0.117E+00  0.117E+00
   9.066  0.117E+00  0.117E+00
   9.076  0.117E+00  0.117E+00
   9.086  0.117E+00  0.117E+00
   9.096  0.117E+00  0.117E+00
   9.106  0.117E+00  0.117E+00
   9.116  0.118E+00  0.118E+00
   9.126  0.118E+00  0.118E+00
   9.136  0.119E+00  0.119E+00
   9.146  0.119E+00  0.119E+00
   9.156  0.120E+00  0.120E+00
   9.166  0.121E+00  0.121E+00
   9.176  0.122E+00  0.122E+00
   9.186  0.123E+00  0.123E+00
   9.196  0.124E+00  0.124E+00
   9.206  0.125E+00  0.125E+00
   9.216  0.126E+00  0.126E+00
   9.226  0.127E+00  0.127E+00
   9.236  0.128E+00  0.128E+00
   9.246  0.129E+00  0.129E+00
   9.256  0.129E+00  0.129E+00
   9.266  0.130E+00  0.130E+00
   9.276  0.130E+00  0.130E+00
   9.286  0.130E+00  0.130E+00
   9.296  0.130E+00  0.130E+00
   9.306  0.130E+00  0.130E+00
   9.316  0.130E+00  0.130E+00
   9.326  0.129E+00  0.129E+00
   9.336  0.129E+00  0.129E+00
   9.346  0.128E+00  0.128E+00
   9.356  0.128E+00  0.128E+00
   9.366  0.127E+00  0.127E+00
   9.376  0.126E+00  0.126E+00
   9.386  0.126E+00  0.126E+00
   9.396  0.125E+00  0.125E+00
   9.406  0.125E+00  0.125E+00
   9.416  0.124E+00  0.124E+00
   9.426  0.124E+00  0.124E+00
   9.436  0.124E+00  0.124E+00
   9.446  0.124E+00  0.124E+00
   9.456  0.124E+00  0.124E+00
   9.466  0.124E+00  0.124E+00
   9.476  0.124E+00  0.124E+00
   9.486  0.125E+00  0.125E+00
   9.496  0.126E+00  0.126E+00
   9.506  0.126E+00  0.126E+00
   9.516  0.127E+00  0.127E+00
   9.526  0.128E+00  0.128E+00
   9.536  0.130E+00  0.130E+00
   9.546  0.131E+00  0.131E+00
   9.556  0.132E+00  0.132E+00
   9.566  0.133E+00  0.133E+00
   9.576  0.134E+00  0.134E+00
   9.586  0.135E+00  0.135E+00
   9.596  0.136E+00  0.136E+00
   9.606  0.137E+00  0.137E+00
   9.616  0.137E+00  0.137E+00
   9.626  0.138E+00  0.138E+00
   9.636  0.138E+00  0.138E+00
   9.646  0.138E+00  0.138E+00
   9.656  0.138E+00  0.138E+00
   9.666  0.137E+00  0.137E+00
   9.676  0.136E+00  0.136E+00
   9.686  0.135E+00  0.135E+00
   9.696  0.134E+00  0.134E+00
   9.706  0.133E+00  0.133E+00
   9.716  0.131E+00  0.131E+00
   9.726  0.130E+00  0.130E+00
   9.736  0.128E+00  0.128E+00
   9.746  0.126E+00  0.126E+00
   9.756  0.125E+00  0.125E+00
   9.766  0.123E+00  0.123E+00
   9.776  0.121E+00  0.121E+00
   9.786  0.120E+00  0.120E+00
   9.796  0.119E+00  0.119E+00
   9.806  0.118E+00  0.118E+00
   9.816  0.117E+00  0.117E+00
   9.826  0.117E+00  0.117E+00
   9.836  0.117E+00  0.117E+00
   9.846  0.117E+00  0.117E+00
   9.856  0.117E+00  0.117E+00
   9.866  0.117E+00  0.117E+00
   9.876  0.118E+00  0.118E+00
   9.886  0.119E+00  0.119E+00
   9.896  0.120E+00  0.120E+00
   9.906  0.122E+00  0.122E+00
   9.916  0.123E+00  0.123E+00
   9.926  0.125E+00  0.125E+00
   9.936  0.126E+00  0.126E+00
   9.946  0.128E+00  0.128E+00
   9.956  0.129E+00  0.129E+00
   9.966  0.131E+00  0.131E+00
   9.976  0.133E+00  0.133E+00
   9.986  0.134E+00  0.134E+00
   9.996  0.135E+00  0.135E+00
  10.006  0.136E+00  0.136E+00
  10.016  0.137E+00  0.137E+00
  10.026  0.138E+00  0.138E+00
  10.036  0.139E+00  0.139E+00
  10.046  0.139E+00  0.139E+00
  10.056  0.139E+00  0.139E+00
  10.066  0.139E+00  0.139E+00
  10.076  0.139E+00  0.139E+00
  10.086  0.139E+00  0.139E+00
  10.096  0.139E+00  0.139E+00
  10.106  0.138E+00  0.138E+00
  10.116  0.138E+00  0.138E+00
  10.126  0.137E+00  0.137E+00
  10.136  0.136E+00  0.136E+00
  10.146  0.135E+00  0.135E+00
  10.156  0.134E+00  0.134E+00
  10.166  0.133E+00  0.133E+00
  10.176  0.132E+00  0.132E+00
  10.186  0.131E+00  0.131E+00
  10.196  0.130E+00  0.130E+00
  10.206  0.129E+00  0.129E+00
  10.216  0.128E+00  0.128E+00
  10.226  0.127E+00  0.127E+00
  10.236  0.126E+00  0.126E+00
  10.246  0.125E+00  0.125E+00
  10.256  0.125E+00  0.125E+00
  10.266  0.124E+00  0.124E+00
  10.276  0.123E+00  0.123E+00
  10.286  0.123E+00  0.123E+00
  10.296  0.123E+00  0.123E+00
  10.306  0.122E+00  0.122E+00
  10.316  0.122E+00  0.122E+00
  10.326  0.122E+00  0.122E+00
  10.336  0.123E+00  0.123E+00
  10.346  0.123E+00  0.123E+00
  10.356  0.123E+00  0.123E+00
  10.366  0.123E+00  0.123E+00
  10.376  0.124E+00  0.124E+00
  10.386  0.124E+00  0.124E+00
  10.396  0.125E+00  0.125E+00
  10.406  0.125E+00  0.125E+00
  10.416  0.125E+00  0.125E+00
  10.426  0.126E+00  0.126E+00
  10.436  0.126E+00  0.126E+00
  10.446  0.127E+00  0.127E+00
  10.456  0.127E+00  0.127E+00
  10.466  0.128E+00  0.128E+00
  10.476  0.128E+00  0.128E+00
  10.486  0.128E+00  0.128E+00
  10.496  0.129E+00  0.129E+00
  10.506  0.129E+00  0.129E+00
  10.516  0.129E+00  0.129E+00
  10.526  0.129E+00  0.129E+00
  10.536  0.129E+00  0.129E+00
  10.546  0.130E+00  0.130E+00
  10.556  0.130E+00  0.130E+00
  10.566  0.130E+00  0.130E+00
  10.576  0.130E+00  0.130E+00
  10.586  0.130E+00  0.130E+00
  10.596  0.130E+00  0.130E+00
  10.606  0.130E+00  0.130E+00
  10.616  0.130E+00  0.130E+00
  10.626  0.130E+00  0.130E+00
  10.636  0.130E+00  0.130E+00
  10.646  0.131E+00  0.131E+00
  10.656  0.131E+00  0.131E+00
  10.666  0.131E+00  0.131E+00
  10.676  0.131E+00  0.131E+00
  10.686  0.132E+00  0.132E+00
  10.696  0.132E+00  0.132E+00
  10.706  0.132E+00  0.132E+00
  10.716  0.132E+00  0.132E+00
  10.726  0.132E+00  0.132E+00
  10.736  0.132E+00  0.132E+00
  10.746  0.132E+00  0.132E+00
  10.756  0.132E+00  0.132E+00
  10.766  0.131E+00  0.131E+00
  10.776  0.131E+00  0.131E+00
  10.786  0.130E+00  0.130E+00
  10.796  0.129E+00  0.129E+00
  10.806  0.128E+00  0.128E+00
  10.816  0.127E+00  0.127E+00
  10.826  0.126E+00  0.126E+00
  10.836  0.125E+00  0.125E+00
  10.846  0.124E+00  0.124E+00
  10.856  0.123E+00  0.123E+00
  10.866  0.122E+00  0.122E+00
  10.876  0.121E+00  0.121E+00
  10.886  0.120E+00  0.120E+00
  10.896  0.120E+00  0.120E+00
  10.906  0.119E+00  0.119E+00
  10.916  0.119E+00  0.119E+00
  10.926  0.118E+00  0.118E+00
  10.936  0.118E+00  0.118E+00
  10.946  0.118E+00  0.118E+00
  10.956  0.119E+00  0.119E+00
  10.966  0.119E+00  0.119E+00
  10.976  0.120E+00  0.120E+00
  10.986  0.121E+00  0.121E+00
  10.996  0.122E+00  0.122E+00
  11.006  0.123E+00  0.123E+00
  11.016  0.124E+00  0.124E+00
  11.026  0.125E+00  0.125E+00
  11.036  0.126E+00  0.126E+00
  11.046  0.127E+00  0.127E+00
  11.056  0.128E+00  0.128E+00
  11.066  0.129E+00  0.129E+00
  11.076  0.129E+00  0.129E+00
  11.086  0.130E+00  0.130E+00
  11.096  0.130E+00  0.130E+00
  11.106  0.131E+00  0.131E+00
  11.116  0.131E+00  0.131E+00
  11.126  0.131E+00  0.131E+00
  11.136  0.131E+00  0.131E+00
  11.146  0.131E+00  0.131E+00
  11.156  0.130E+00  0.130E+00
  11.166  0.130E+00  0.130E+00
  11.176  0.129E+00  0.129E+00
  11.186  0.129E+00  0.129E+00
  11.196  0.128E+00  0.128E+00
  11.206  0.128E+00  0.128E+00
  11.216  0.127E+00  0.127E+00
  11.226  0.126E+00  0.126E+00
  11.236  0.126E+00  0.126E+00
  11.246  0.125E+00  0.125E+00
  11.256  0.125E+00  0.125E+00
  11.266  0.124E+00  0.124E+00
  11.276  0.124E+00  0.124E+00
  11.286  0.124E+00  0.124E+00
  11.296  0.123E+00  0.123E+00
  11.306  0.123E+00  0.123E+00
  11.316  0.123E+00  0.123E+00
  11.326  0.123E+00  0.123E+00
  11.336  0.122E+00  0.122E+00
  11.346  0.122E+00  0.122E+00
  11.356  0.122E+00  0.122E+00
  11.366  0.122E+00  0.122E+00
  11.376  0.122E+00  0.122E+00
  11.386  0.121E+00  0.121E+00
  11.396  0.121E+00  0.121E+00
  11.406  0.121E+00  0.121E+00
  11.416  0.121E+00  0.121E+00
  11.426  0.120E+00  0.120E+00
  11.436  0.120E+00  0.120E+00
  11.446  0.119E+00  0.119E+00
  11.456  0.119E+00  0.119E+00
  11.466  0.118E+00  0.118E+00
  11.476  0.118E+00  0.118E+00
  11.486  0.118E+00  0.118E+00
  11.496  0.118E+00  0.118E+00
  11.506  0.118E+00  0.118E+00
  11.516  0.118E+00  0.118E+00
  11.526  0.118E+00  0.118E+00
  11.536  0.118E+00  0.118E+00
  11.546  0.118E+00  0.118E+00
  11.556  0.119E+00  0.119E+00
  11.566  0.119E+00  0.119E+00
  11.576  0.120E+00  0.120E+00
  11.586  0.121E+00  0.121E+00
  11.596  0.121E+00  0.121E+00
  11.606  0.122E+00  0.122E+00
  11.616  0.123E+00  0.123E+00
  11.626  0.123E+00  0.123E+00
  11.636  0.124E+00  0.124E+00
  11.646  0.125E+00  0.125E+00
  11.656  0.125E+00  0.125E+00
  11.666  0.125E+00  0.125E+00
  11.676  0.125E+00  0.125E+00
  11.686  0.125E+00  0.125E+00
  11.696  0.125E+00  0.125E+00
  11.706  0.125E+00  0.125E+00
  11.716  0.124E+00  0.124E+00
  11.726  0.124E+00  0.124E+00
  11.736  0.123E+00  0.123E+00
  11.746  0.123E+00  0.123E+00
  11.756  0.122E+00  0.122E+00
  11.766  0.121E+00  0.121E+00
  11.776  0.121E+00  0.121E+00
  11.786  0.120E+00  0.120E+00
  11.796  0.120E+00  0.120E+00
  11.806  0.119E+00  0.119E+00
  11.816  0.119E+00  0.119E+00
  11.826  0.119E+00  0.119E+00
  11.836  0.118E+00  0.118E+00
  11.846  0.118E+00  0.118E+00
  11.856  0.118E+00  0.118E+00
  11.866  0.118E+00  0.118E+00
  11.876  0.118E+00  0.118E+00
  11.886  0.118E+00  0.118E+00
  11.896  0.118E+00  0.118E+00
  11.906  0.118E+00  0.118E+00
  11.916  0.118E+00  0.118E+00
  11.926  0.118E+00  0.118E+00
  11.936  0.118E+00  0.118E+00
  11.946  0.118E+00  0.118E+00
  11.956  0.118E+00  0.118E+00
  11.966  0.118E+00  0.118E+00
  11.976  0.118E+00  0.118E+00
  11.986  0.118E+00  0.118E+00
  11.996  0.118E+00  0.118E+00
  12.006  0.118E+00  0.118E+00
  12.016  0.117E+00  0.117E+00
  12.026  0.117E+00  0.117E+00
  12.036  0.117E+00  0.117E+00
  12.046  0.116E+00  0.116E+00
  12.056  0.116E+00  0.116E+00
  12.066  0.115E+00  0.115E+00
  12.076  0.115E+00  0.115E+00
  12.086  0.114E+00  0.114E+00
  12.096  0.114E+00  0.114E+00
  12.106  0.113E+00  0.113E+00
  12.116  0.112E+00  0.112E+00
  12.126  0.112E+00  0.112E+00
  12.136  0.111E+00  0.111E+00
  12.146  0.111E+00  0.111E+00
  12.156  0.110E+00  0.110E+00
  12.166  0.110E+00  0.110E+00
  12.176  0.109E+00  0.109E+00
  12.186  0.109E+00  0.109E+00
  12.196  0.109E+00  0.109E+00
  12.206  0.109E+00  0.109E+00
  12.216  0.110E+00  0.110E+00
  12.226  0.110E+00  0.110E+00
  12.236  0.111E+00  0.111E+00
  12.246  0.112E+00  0.112E+00
  12.256  0.113E+00  0.113E+00
  12.266  0.114E+00  0.114E+00
  12.276  0.115E+00  0.115E+00
  12.286  0.116E+00  0.116E+00
  12.296  0.118E+00  0.118E+00
  12.306  0.119E+00  0.119E+00
  12.316  0.120E+00  0.120E+00
  12.326  0.121E+00  0.121E+00
  12.336  0.122E+00  0.122E+00
  12.346  0.123E+00  0.123E+00
  12.356  0.123E+00  0.123E+00
  12.366  0.123E+00  0.123E+00
  12.376  0.123E+00  0.123E+00
  12.386  0.123E+00  0.123E+00
  12.396  0.122E+00  0.122E+00
  12.406  0.121E+00  0.121E+00
  12.416  0.120E+00  0.120E+00
  12.426  0.119E+00  0.119E+00
  12.436  0.118E+00  0.118E+00
  12.446  0.117E+00  0.117E+00
  12.456  0.115E+00  0.115E+00
  12.466  0.114E+00  0.114E+00
  12.476  0.112E+00  0.112E+00
  12.486  0.111E+00  0.111E+00
  12.496  0.109E+00  0.109E+00
  12.506  0.108E+00  0.108E+00
  12.516  0.107E+00  0.107E+00
  12.526  0.105E+00  0.105E+00
  12.536  0.104E+00  0.104E+00
  12.546  0.104E+00  0.104E+00
  12.556  0.103E+00  0.103E+00
  12.566  0.102E+00  0.102E+00
  12.576  0.102E+00  0.102E+00
  12.586  0.102E+00  0.102E+00
  12.596  0.102E+00  0.102E+00
  12.606  0.102E+00  0.102E+00
  12.616  0.102E+00  0.102E+00
  12.626  0.102E+00  0.102E+00
  12.636  0.103E+00  0.103E+00
  12.646  0.103E+00  0.103E+00
  12.656  0.104E+00  0.104E+00
  12.666  0.105E+00  0.105E+00
  12.676  0.106E+00  0.106E+00
  12.686  0.106E+00  0.106E+00
  12.696  0.107E+00  0.107E+00
  12.706  0.108E+00  0.108E+00
  12.716  0.109E+00  0.109E+00
  12.726  0.109E+00  0.109E+00
  12.736  0.110E+00  0.110E+00
  12.746  0.111E+00  0.111E+00
  12.756  0.111E+00  0.111E+00
  12.766  0.112E+00  0.112E+00
  12.776  0.112E+00  0.112E+00
  12.786  0.112E+00  0.112E+00
  12.796  0.112E+00  0.112E+00
  12.806  0.112E+00  0.112E+00
  12.816  0.112E+00  0.112E+00
  12.826  0.112E+00  0.112E+00
  12.836  0.112E+00  0.112E+00
  12.846  0.111E+00  0.111E+00
  12.856  0.111E+00  0.111E+00
  12.866  0.110E+00  0.110E+00
  12.876  0.109E+00  0.109E+00
  12.886  0.109E+00  0.109E+00
  12.896  0.108E+00  0.108E+00
  12.906  0.107E+00  0.107E+00
  12.916  0.106E+00  0.106E+00
  12.926  0.106E+00  0.106E+00
  12.936  0.105E+00  0.105E+00
  12.946  0.104E+00  0.104E+00
  12.956  0.104E+00  0.104E+00
  12.966  0.103E+00  0.103E+00
  12.976  0.103E+00  0.103E+00
  12.986  0.103E+00  0.103E+00
  12.996  0.102E+00  0.102E+00
  13.006  0.102E+00  0.102E+00
  13.016  0.102E+00  0.102E+00
  13.026  0.102E+00  0.102E+00
  13.036  0.102E+00  0.102E+00
  13.046  0.102E+00  0.102E+00
  13.056  0.102E+00  0.102E+00
  13.066  0.102E+00  0.102E+00
  13.076  0.102E+00  0.102E+00
  13.086  0.102E+00  0.102E+00
  13.096  0.102E+00  0.102E+00
  13.106  0.102E+00  0.102E+00
  13.116  0.102E+00  0.102E+00
  13.126  0.102E+00  0.102E+00
  13.136  0.102E+00  0.102E+00
  13.146  0.101E+00  0.101E+00
  13.156  0.101E+00  0.101E+00
  13.166  0.101E+00  0.101E+00
  13.176  0.100E+00  0.100E+00
  13.186  0.997E-01  0.997E-01
  13.196  0.994E-01  0.994E-01
  13.206  0.990E-01  0.990E-01
  13.216  0.986E-01  0.986E-01
  13.226  0.983E-01  0.983E-01
  13.236  0.981E-01  0.981E-01
  13.246  0.980E-01  0.980E-01
  13.256  0.979E-01  0.979E-01
  13.266  0.979E-01  0.979E-01
  13.276  0.979E-01  0.979E-01
  13.286  0.981E-01  0.981E-01
  13.296  0.983E-01  0.983E-01
  13.306  0.986E-01  0.986E-01
  13.316  0.989E-01  0.989E-01
  13.326  0.992E-01  0.992E-01
  13.336  0.995E-01  0.995E-01
  13.346  0.998E-01  0.998E-01
  13.356  0.100E+00  0.100E+00
  13.366  0.100E+00  0.100E+00
  13.376  0.100E+00  0.100E+00
  13.386  0.100E+00  0.100E+00
  13.396  0.100E+00  0.100E+00
  13.406  0.997E-01  0.997E-01
  13.416  0.993E-01  0.993E-01
  13.426  0.988E-01  0.988E-01
  13.436  0.981E-01  0.981E-01
  13.446  0.974E-01  0.974E-01
  13.456  0.967E-01  0.967E-01
  13.466  0.958E-01  0.958E-01
  13.476  0.950E-01  0.950E-01
  13.486  0.942E-01  0.942E-01
  13.496  0.935E-01  0.935E-01
  13.506  0.928E-01  0.928E-01
  13.516  0.921E-01  0.921E-01
  13.526  0.916E-01  0.916E-01
  13.536  0.912E-01  0.912E-01
  13.546  0.910E-01  0.910E-01
  13.556  0.909E-01  0.909E-01
  13.566  0.908E-01  0.908E-01
  13.576  0.910E-01  0.910E-01
  13.586  0.912E-01  0.912E-01
  13.596  0.915E-01  0.915E-01
  13.606  0.918E-01  0.918E-01
  13.616  0.922E-01  0.922E-01
  13.626  0.926E-01  0.926E-01
  13.636  0.930E-01  0.930E-01
  13.646  0.933E-01  0.933E-01
  13.656  0.936E-01  0.936E-01
  13.666  0.939E-01  0.939E-01
  13.676  0.940E-01  0.940E-01
  13.686  0.940E-01  0.940E-01
  13.696  0.939E-01  0.939E-01
  13.706  0.937E-01  0.937E-01
  13.716  0.934E-01  0.934E-01
  13.726  0.929E-01  0.929E-01
  13.736  0.924E-01  0.924E-01
  13.746  0.918E-01  0.918E-01
  13.756  0.911E-01  0.911E-01
  13.766  0.903E-01  0.903E-01
  13.776  0.896E-01  0.896E-01
  13.786  0.888E-01  0.888E-01
  13.796  0.880E-01  0.880E-01
  13.806  0.872E-01  0.872E-01
  13.816  0.864E-01  0.864E-01
  13.826  0.857E-01  0.857E-01
  13.836  0.851E-01  0.851E-01
  13.846  0.845E-01  0.845E-01
  13.856  0.839E-01  0.839E-01
  13.866  0.835E-01  0.835E-01
  13.876  0.831E-01  0.831E-01
  13.886  0.828E-01  0.828E-01
  13.896  0.825E-01  0.825E-01
  13.906  0.823E-01  0.823E-01
  13.916  0.821E-01  0.821E-01
  13.926  0.819E-01  0.819E-01
  13.936  0.818E-01  0.818E-01
  13.946  0.818E-01  0.818E-01
  13.956  0.817E-01  0.817E-01
  13.966  0.817E-01  0.817E-01
  13.976  0.816E-01  0.816E-01
  13.986  0.816E-01  0.816E-01
  13.996  0.816E-01  0.816E-01
  14.006  0.816E-01  0.816E-01
  14.016  0.817E-01  0.817E-01
  14.026  0.817E-01  0.817E-01
  14.036  0.818E-01  0.818E-01
  14.046  0.818E-01  0.818E-01
  14.056  0.820E-01  0.820E-01
  14.066  0.821E-01  0.821E-01
  14.076  0.823E-01  0.823E-01
  14.086  0.825E-01  0.825E-01
  14.096  0.828E-01  0.828E-01
  14.106  0.830E-01  0.830E-01
  14.116  0.833E-01  0.833E-01
  14.126  0.836E-01  0.836E-01
  14.136  0.838E-01  0.838E-01
  14.146  0.840E-01  0.840E-01
  14.156  0.842E-01  0.842E-01
  14.166  0.844E-01  0.844E-01
  14.176  0.844E-01  0.844E-01
  14.186  0.843E-01  0.843E-01
  14.196  0.842E-01  0.842E-01
  14.206  0.839E-01  0.839E-01
  14.216  0.835E-01  0.835E-01
  14.226  0.830E-01  0.830E-01
  14.236  0.823E-01  0.823E-01
  14.246  0.816E-01  0.816E-01
  14.256  0.807E-01  0.807E-01
  14.266  0.797E-01  0.797E-01
  14.276  0.787E-01  0.787E-01
  14.286  0.776E-01  0.776E-01
  14.296  0.765E-01  0.765E-01
  14.306  0.754E-01  0.754E-01
  14.316  0.743E-01  0.743E-01
  14.326  0.733E-01  0.733E-01
  14.336  0.724E-01  0.724E-01
  14.346  0.715E-01  0.715E-01
  14.356  0.707E-01  0.707E-01
  14.366  0.701E-01  0.701E-01
  14.376  0.695E-01  0.695E-01
  14.386  0.691E-01  0.691E-01
  14.396  0.688E-01  0.688E-01
  14.406  0.686E-01  0.686E-01
  14.416  0.684E-01  0.684E-01
  14.426  0.684E-01  0.684E-01
  14.436  0.684E-01  0.684E-01
  14.446  0.684E-01  0.684E-01
  14.456  0.685E-01  0.685E-01
  14.466  0.687E-01  0.687E-01
  14.476  0.688E-01  0.688E-01
  14.486  0.690E-01  0.690E-01
  14.496  0.693E-01  0.693E-01
  14.506  0.695E-01  0.695E-01
  14.516  0.698E-01  0.698E-01
  14.526  0.701E-01  0.701E-01
  14.536  0.705E-01  0.705E-01
  14.546  0.709E-01  0.709E-01
  14.556  0.713E-01  0.713E-01
  14.566  0.718E-01  0.718E-01
  14.576  0.722E-01  0.722E-01
  14.586  0.727E-01  0.727E-01
  14.596  0.732E-01  0.732E-01
  14.606  0.736E-01  0.736E-01
  14.616  0.740E-01  0.740E-01
  14.626  0.744E-01  0.744E-01
  14.636  0.747E-01  0.747E-01
  14.646  0.749E-01  0.749E-01
  14.656  0.750E-01  0.750E-01
  14.666  0.749E-01  0.749E-01
  14.676  0.748E-01  0.748E-01
  14.686  0.745E-01  0.745E-01
  14.696  0.741E-01  0.741E-01
  14.706  0.735E-01  0.735E-01
  14.716  0.728E-01  0.728E-01
  14.726  0.720E-01  0.720E-01
  14.736  0.711E-01  0.711E-01
  14.746  0.701E-01  0.701E-01
  14.756  0.691E-01  0.691E-01
  14.766  0.680E-01  0.680E-01
  14.776  0.669E-01  0.669E-01
  14.786  0.658E-01  0.658E-01
  14.796  0.648E-01  0.648E-01
  14.806  0.638E-01  0.638E-01
  14.816  0.629E-01  0.629E-01
  14.826  0.621E-01  0.621E-01
  14.836  0.615E-01  0.615E-01
  14.846  0.609E-01  0.609E-01
  14.856  0.604E-01  0.604E-01
  14.866  0.601E-01  0.601E-01
  14.876  0.599E-01  0.599E-01
  14.886  0.598E-01  0.598E-01
  14.896  0.598E-01  0.598E-01
  14.906  0.599E-01  0.599E-01
  14.916  0.601E-01  0.601E-01
  14.926  0.603E-01  0.603E-01
  14.936  0.605E-01  0.605E-01
  14.946  0.608E-01  0.608E-01
  14.956  0.611E-01  0.611E-01
  14.966  0.614E-01  0.614E-01
  14.976  0.616E-01  0.616E-01
  14.986  0.618E-01  0.618E-01
  14.996  0.620E-01  0.620E-01
  15.006  0.621E-01  0.621E-01
  15.016  0.622E-01  0.622E-01
  15.026  0.623E-01  0.623E-01
  15.036  0.623E-01  0.623E-01
  15.046  0.622E-01  0.622E-01
  15.056  0.621E-01  0.621E-01
  15.066  0.620E-01  0.620E-01
  15.076  0.619E-01  0.619E-01
  15.086  0.618E-01  0.618E-01
  15.096  0.616E-01  0.616E-01
  15.106  0.615E-01  0.615E-01
  15.116  0.613E-01  0.613E-01
  15.126  0.612E-01  0.612E-01
  15.136  0.611E-01  0.611E-01
  15.146  0.611E-01  0.611E-01
  15.156  0.610E-01  0.610E-01
  15.166  0.610E-01  0.610E-01
  15.176  0.609E-01  0.609E-01
  15.186  0.609E-01  0.609E-01
  15.196  0.609E-01  0.609E-01
  15.206  0.609E-01  0.609E-01
  15.216  0.608E-01  0.608E-01
  15.226  0.607E-01  0.607E-01
  15.236  0.606E-01  0.606E-01
  15.246  0.605E-01  0.605E-01
  15.256  0.603E-01  0.603E-01
  15.266  0.600E-01  0.600E-01
  15.276  0.597E-01  0.597E-01
  15.286  0.594E-01  0.594E-01
  15.296  0.590E-01  0.590E-01
  15.306  0.585E-01  0.585E-01
  15.316  0.581E-01  0.581E-01
  15.326  0.576E-01  0.576E-01
  15.336  0.571E-01  0.571E-01
  15.346  0.566E-01  0.566E-01
  15.356  0.561E-01  0.561E-01
  15.366  0.557E-01  0.557E-01
  15.376  0.552E-01  0.552E-01
  15.386  0.549E-01  0.549E-01
  15.396  0.545E-01  0.545E-01
  15.406  0.542E-01  0.542E-01
  15.416  0.540E-01  0.540E-01
  15.426  0.538E-01  0.538E-01
  15.436  0.537E-01  0.537E-01
  15.446  0.536E-01  0.536E-01
  15.456  0.535E-01  0.535E-01
  15.466  0.535E-01  0.535E-01
  15.476  0.535E-01  0.535E-01
  15.486  0.535E-01  0.535E-01
  15.496  0.536E-01  0.536E-01
  15.506  0.537E-01  0.537E-01
  15.516  0.537E-01  0.537E-01
  15.526  0.538E-01  0.538E-01
  15.536  0.538E-01  0.538E-01
  15.546  0.538E-01  0.538E-01
  15.556  0.538E-01  0.538E-01
  15.566  0.538E-01  0.538E-01
  15.576  0.537E-01  0.537E-01
  15.586  0.537E-01  0.537E-01
  15.596  0.536E-01  0.536E-01
  15.606  0.535E-01  0.535E-01
  15.616  0.533E-01  0.533E-01
  15.626  0.532E-01  0.532E-01
  15.636  0.530E-01  0.530E-01
  15.646  0.528E-01  0.528E-01
  15.656  0.527E-01  0.527E-01
  15.666  0.525E-01  0.525E-01
  15.676  0.523E-01  0.523E-01
  15.686  0.521E-01  0.521E-01
  15.696  0.519E-01  0.519E-01
  15.706  0.517E-01  0.517E-01
  15.716  0.516E-01  0.516E-01
  15.726  0.515E-01  0.515E-01
  15.736  0.513E-01  0.513E-01
  15.746  0.512E-01  0.512E-01
  15.756  0.511E-01  0.511E-01
  15.766  0.511E-01  0.511E-01
  15.776  0.510E-01  0.510E-01
  15.786  0.510E-01  0.510E-01
  15.796  0.510E-01  0.510E-01
  15.806  0.510E-01  0.510E-01
  15.816  0.509E-01  0.509E-01
  15.826  0.509E-01  0.509E-01
  15.836  0.509E-01  0.509E-01
  15.846  0.509E-01  0.509E-01
  15.856  0.509E-01  0.509E-01
  15.866  0.509E-01  0.509E-01
  15.876  0.509E-01  0.509E-01
  15.886  0.508E-01  0.508E-01
  15.896  0.507E-01  0.507E-01
  15.906  0.506E-01  0.506E-01
  15.916  0.505E-01  0.505E-01
  15.926  0.503E-01  0.503E-01
  15.936  0.501E-01  0.501E-01
  15.946  0.499E-01  0.499E-01
  15.956  0.496E-01  0.496E-01
  15.966  0.493E-01  0.493E-01
  15.976  0.490E-01  0.490E-01
  15.986  0.487E-01  0.487E-01
  15.996  0.483E-01  0.483E-01
  16.006  0.479E-01  0.479E-01
  16.016  0.475E-01  0.475E-01
  16.026  0.471E-01  0.471E-01
  16.036  0.467E-01  0.467E-01
  16.046  0.463E-01  0.463E-01
  16.056  0.458E-01  0.458E-01
  16.066  0.454E-01  0.454E-01
  16.076  0.451E-01  0.451E-01
  16.086  0.447E-01  0.447E-01
  16.096  0.444E-01  0.444E-01
  16.106  0.441E-01  0.441E-01
  16.116  0.439E-01  0.439E-01
  16.126  0.437E-01  0.437E-01
  16.136  0.436E-01  0.436E-01
  16.146  0.435E-01  0.435E-01
  16.156  0.435E-01  0.435E-01
  16.166  0.436E-01  0.436E-01
  16.176  0.437E-01  0.437E-01
  16.186  0.439E-01  0.439E-01
  16.196  0.442E-01  0.442E-01
  16.206  0.445E-01  0.445E-01
  16.216  0.448E-01  0.448E-01
  16.226  0.451E-01  0.451E-01
  16.236  0.455E-01  0.455E-01
  16.246  0.458E-01  0.458E-01
  16.256  0.461E-01  0.461E-01
  16.266  0.464E-01  0.464E-01
  16.276  0.467E-01  0.467E-01
  16.286  0.469E-01  0.469E-01
  16.296  0.470E-01  0.470E-01
  16.306  0.471E-01  0.471E-01
  16.316  0.471E-01  0.471E-01
  16.326  0.471E-01  0.471E-01
  16.336  0.469E-01  0.469E-01
  16.346  0.468E-01  0.468E-01
  16.356  0.465E-01  0.465E-01
  16.366  0.462E-01  0.462E-01
  16.376  0.458E-01  0.458E-01
  16.386  0.454E-01  0.454E-01
  16.396  0.450E-01  0.450E-01
  16.406  0.445E-01  0.445E-01
  16.416  0.441E-01  0.441E-01
  16.426  0.436E-01  0.436E-01
  16.436  0.432E-01  0.432E-01
  16.446  0.427E-01  0.427E-01
  16.456  0.423E-01  0.423E-01
  16.466  0.420E-01  0.420E-01
  16.476  0.416E-01  0.416E-01
  16.486  0.413E-01  0.413E-01
  16.496  0.410E-01  0.410E-01
  16.506  0.408E-01  0.408E-01
  16.516  0.405E-01  0.405E-01
  16.526  0.404E-01  0.404E-01
  16.536  0.402E-01  0.402E-01
  16.546  0.401E-01  0.401E-01
  16.556  0.400E-01  0.400E-01
  16.566  0.399E-01  0.399E-01
  16.576  0.398E-01  0.398E-01
  16.586  0.397E-01  0.397E-01
  16.596  0.397E-01  0.397E-01
  16.606  0.396E-01  0.396E-01
  16.616  0.396E-01  0.396E-01
  16.626  0.395E-01  0.395E-01
  16.636  0.395E-01  0.395E-01
  16.646  0.395E-01  0.395E-01
  16.656  0.394E-01  0.394E-01
  16.666  0.394E-01  0.394E-01
  16.676  0.394E-01  0.394E-01
  16.686  0.395E-01  0.395E-01
  16.696  0.395E-01  0.395E-01
  16.706  0.395E-01  0.395E-01
  16.716  0.395E-01  0.395E-01
  16.726  0.395E-01  0.395E-01
  16.736  0.395E-01  0.395E-01
  16.746  0.395E-01  0.395E-01
  16.756  0.395E-01  0.395E-01
  16.766  0.395E-01  0.395E-01
  16.776  0.395E-01  0.395E-01
  16.786  0.395E-01  0.395E-01
  16.796  0.394E-01  0.394E-01
  16.806  0.394E-01  0.394E-01
  16.816  0.393E-01  0.393E-01
  16.826  0.392E-01  0.392E-01
  16.836  0.392E-01  0.392E-01
  16.846  0.391E-01  0.391E-01
  16.856  0.390E-01  0.390E-01
  16.866  0.389E-01  0.389E-01
  16.876  0.389E-01  0.389E-01
  16.886  0.388E-01  0.388E-01
  16.896  0.388E-01  0.388E-01
  16.906  0.387E-01  0.387E-01
  16.916  0.387E-01  0.387E-01
  16.926  0.386E-01  0.386E-01
  16.936  0.386E-01  0.386E-01
  16.946  0.385E-01  0.385E-01
  16.956  0.384E-01  0.384E-01
  16.966  0.384E-01  0.384E-01
  16.976  0.383E-01  0.383E-01
  16.986  0.382E-01  0.382E-01
  16.996  0.382E-01  0.382E-01
  17.006  0.381E-01  0.381E-01
  17.016  0.380E-01  0.380E-01
  17.026  0.379E-01  0.379E-01
  17.036  0.379E-01  0.379E-01
  17.046  0.378E-01  0.378E-01
  17.056  0.378E-01  0.378E-01
  17.066  0.377E-01  0.377E-01
  17.076  0.377E-01  0.377E-01
  17.086  0.376E-01  0.376E-01
  17.096  0.376E-01  0.376E-01
  17.106  0.376E-01  0.376E-01
  17.116  0.376E-01  0.376E-01
  17.126  0.376E-01  0.376E-01
  17.136  0.376E-01  0.376E-01
  17.146  0.376E-01  0.376E-01
  17.156  0.375E-01  0.375E-01
  17.166  0.375E-01  0.375E-01
  17.176  0.375E-01  0.375E-01
  17.186  0.374E-01  0.374E-01
  17.196  0.373E-01  0.373E-01
  17.206  0.372E-01  0.372E-01
  17.216  0.370E-01  0.370E-01
  17.226  0.369E-01  0.369E-01
  17.236  0.367E-01  0.367E-01
  17.246  0.365E-01  0.365E-01
  17.256  0.363E-01  0.363E-01
  17.266  0.361E-01  0.361E-01
  17.276  0.359E-01  0.359E-01
  17.286  0.357E-01  0.357E-01
  17.296  0.355E-01  0.355E-01
  17.306  0.353E-01  0.353E-01
  17.316  0.352E-01  0.352E-01
  17.326  0.351E-01  0.351E-01
  17.336  0.351E-01  0.351E-01
  17.346  0.351E-01  0.351E-01
  17.356  0.351E-01  0.351E-01
  17.366  0.352E-01  0.352E-01
  17.376  0.354E-01  0.354E-01
  17.386  0.356E-01  0.356E-01
  17.396  0.358E-01  0.358E-01
  17.406  0.361E-01  0.361E-01
  17.416  0.364E-01  0.364E-01
  17.426  0.367E-01  0.367E-01
  17.436  0.370E-01  0.370E-01
  17.446  0.374E-01  0.374E-01
  17.456  0.377E-01  0.377E-01
  17.466  0.380E-01  0.380E-01
  17.476  0.383E-01  0.383E-01
  17.486  0.386E-01  0.386E-01
  17.496  0.388E-01  0.388E-01
  17.506  0.390E-01  0.390E-01
  17.516  0.391E-01  0.391E-01
  17.526  0.392E-01  0.392E-01
  17.536  0.393E-01  0.393E-01
  17.546  0.392E-01  0.392E-01
  17.556  0.391E-01  0.391E-01
  17.566  0.390E-01  0.390E-01
  17.576  0.388E-01  0.388E-01
  17.586  0.386E-01  0.386E-01
  17.596  0.383E-01  0.383E-01
  17.606  0.380E-01  0.380E-01
  17.616  0.376E-01  0.376E-01
  17.626  0.373E-01  0.373E-01
  17.636  0.369E-01  0.369E-01
  17.646  0.365E-01  0.365E-01
  17.656  0.361E-01  0.361E-01
  17.666  0.358E-01  0.358E-01
  17.676  0.354E-01  0.354E-01
  17.686  0.351E-01  0.351E-01
  17.696  0.348E-01  0.348E-01
  17.706  0.345E-01  0.345E-01
  17.716  0.343E-01  0.343E-01
  17.726  0.341E-01  0.341E-01
  17.736  0.339E-01  0.339E-01
  17.746  0.338E-01  0.338E-01
  17.756  0.338E-01  0.338E-01
  17.766  0.337E-01  0.337E-01
  17.776  0.338E-01  0.338E-01
  17.786  0.339E-01  0.339E-01
  17.796  0.340E-01  0.340E-01
  17.806  0.342E-01  0.342E-01
  17.816  0.344E-01  0.344E-01
  17.826  0.346E-01  0.346E-01
  17.836  0.349E-01  0.349E-01
  17.846  0.352E-01  0.352E-01
  17.856  0.355E-01  0.355E-01
  17.866  0.358E-01  0.358E-01
  17.876  0.361E-01  0.361E-01
  17.886  0.364E-01  0.364E-01
  17.896  0.367E-01  0.367E-01
  17.906  0.369E-01  0.369E-01
  17.916  0.371E-01  0.371E-01
  17.926  0.372E-01  0.372E-01
  17.936  0.372E-01  0.372E-01
  17.946  0.372E-01  0.372E-01
  17.956  0.372E-01  0.372E-01
  17.966  0.370E-01  0.370E-01
  17.976  0.368E-01  0.368E-01
  17.986  0.365E-01  0.365E-01
  17.996  0.362E-01  0.362E-01
  18.006  0.358E-01  0.358E-01
  18.016  0.354E-01  0.354E-01
  18.026  0.350E-01  0.350E-01
  18.036  0.346E-01  0.346E-01
  18.046  0.342E-01  0.342E-01
  18.056  0.339E-01  0.339E-01
  18.066  0.336E-01  0.336E-01
  18.076  0.333E-01  0.333E-01
  18.086  0.331E-01  0.331E-01
  18.096  0.330E-01  0.330E-01
  18.106  0.329E-01  0.329E-01
  18.116  0.329E-01  0.329E-01
  18.126  0.330E-01  0.330E-01
  18.136  0.331E-01  0.331E-01
  18.146  0.334E-01  0.334E-01
  18.156  0.336E-01  0.336E-01
  18.166  0.339E-01  0.339E-01
  18.176  0.343E-01  0.343E-01
  18.186  0.346E-01  0.346E-01
  18.196  0.350E-01  0.350E-01
  18.206  0.354E-01  0.354E-01
  18.216  0.358E-01  0.358E-01
  18.226  0.362E-01  0.362E-01
  18.236  0.365E-01  0.365E-01
  18.246  0.368E-01  0.368E-01
  18.256  0.371E-01  0.371E-01
  18.266  0.373E-01  0.373E-01
  18.276  0.374E-01  0.374E-01
  18.286  0.375E-01  0.375E-01
  18.296  0.376E-01  0.376E-01
  18.306  0.376E-01  0.376E-01
  18.316  0.375E-01  0.375E-01
  18.326  0.374E-01  0.374E-01
  18.336  0.372E-01  0.372E-01
  18.346  0.369E-01  0.369E-01
  18.356  0.366E-01  0.366E-01
  18.366  0.363E-01  0.363E-01
  18.376  0.360E-01  0.360E-01
  18.386  0.356E-01  0.356E-01
  18.396  0.352E-01  0.352E-01
  18.406  0.348E-01  0.348E-01
  18.416  0.344E-01  0.344E-01
  18.426  0.340E-01  0.340E-01
  18.436  0.337E-01  0.337E-01
  18.446  0.334E-01  0.334E-01
  18.456  0.331E-01  0.331E-01
  18.466  0.328E-01  0.328E-01
  18.476  0.326E-01  0.326E-01
  18.486  0.324E-01  0.324E-01
  18.496  0.322E-01  0.322E-01
  18.506  0.321E-01  0.321E-01
  18.516  0.320E-01  0.320E-01
  18.526  0.320E-01  0.320E-01
  18.536  0.319E-01  0.319E-01
  18.546  0.319E-01  0.319E-01
  18.556  0.319E-01  0.319E-01
  18.566  0.319E-01  0.319E-01
  18.576  0.320E-01  0.320E-01
  18.586  0.321E-01  0.321E-01
  18.596  0.322E-01  0.322E-01
  18.606  0.323E-01  0.323E-01
  18.616  0.324E-01  0.324E-01
  18.626  0.325E-01  0.325E-01
  18.636  0.327E-01  0.327E-01
  18.646  0.329E-01  0.329E-01
  18.656  0.331E-01  0.331E-01
  18.666  0.333E-01  0.333E-01
  18.676  0.335E-01  0.335E-01
  18.686  0.338E-01  0.338E-01
  18.696  0.340E-01  0.340E-01
  18.706  0.343E-01  0.343E-01
  18.716  0.345E-01  0.345E-01
  18.726  0.347E-01  0.347E-01
  18.736  0.350E-01  0.350E-01
  18.746  0.352E-01  0.352E-01
  18.756  0.354E-01  0.354E-01
  18.766  0.355E-01  0.355E-01
  18.776  0.357E-01  0.357E-01
  18.786  0.358E-01  0.358E-01
  18.796  0.359E-01  0.359E-01
  18.806  0.360E-01  0.360E-01
  18.816  0.361E-01  0.361E-01
  18.826  0.362E-01  0.362E-01
  18.836  0.362E-01  0.362E-01
  18.846  0.362E-01  0.362E-01
  18.856  0.363E-01  0.363E-01
  18.866  0.363E-01  0.363E-01
  18.876  0.363E-01  0.363E-01
  18.886  0.362E-01  0.362E-01
  18.896  0.362E-01  0.362E-01
  18.906  0.361E-01  0.361E-01
  18.916  0.360E-01  0.360E-01
  18.926  0.359E-01  0.359E-01
  18.936  0.358E-01  0.358E-01
  18.946  0.356E-01  0.356E-01
  18.956  0.353E-01  0.353E-01
  18.966  0.351E-01  0.351E-01
  18.976  0.348E-01  0.348E-01
  18.986  0.344E-01  0.344E-01
  18.996  0.341E-01  0.341E-01
  19.006  0.337E-01  0.337E-01
  19.016  0.333E-01  0.333E-01
  19.026  0.329E-01  0.329E-01
  19.036  0.325E-01  0.325E-01
  19.046  0.322E-01  0.322E-01
  19.056  0.318E-01  0.318E-01
  19.066  0.315E-01  0.315E-01
  19.076  0.312E-01  0.312E-01
  19.086  0.310E-01  0.310E-01
  19.096  0.308E-01  0.308E-01
  19.106  0.307E-01  0.307E-01
  19.116  0.306E-01  0.306E-01
  19.126  0.306E-01  0.306E-01
  19.136  0.306E-01  0.306E-01
  19.146  0.307E-01  0.307E-01
  19.156  0.309E-01  0.309E-01
  19.166  0.310E-01  0.310E-01
  19.176  0.312E-01  0.312E-01
  19.186  0.314E-01  0.314E-01
  19.196  0.316E-01  0.316E-01
  19.206  0.319E-01  0.319E-01
  19.216  0.321E-01  0.321E-01
  19.226  0.323E-01  0.323E-01
  19.236  0.324E-01  0.324E-01
  19.246  0.326E-01  0.326E-01
  19.256  0.327E-01  0.327E-01
  19.266  0.328E-01  0.328E-01
  19.276  0.329E-01  0.329E-01
  19.286  0.329E-01  0.329E-01
  19.296  0.329E-01  0.329E-01
  19.306  0.329E-01  0.329E-01
  19.316  0.329E-01  0.329E-01
  19.326  0.328E-01  0.328E-01
  19.336  0.327E-01  0.327E-01
  19.346  0.326E-01  0.326E-01
  19.356  0.325E-01  0.325E-01
  19.366  0.324E-01  0.324E-01
  19.376  0.323E-01  0.323E-01
  19.386  0.322E-01  0.322E-01
  19.396  0.321E-01  0.321E-01
  19.406  0.320E-01  0.320E-01
  19.416  0.319E-01  0.319E-01
  19.426  0.318E-01  0.318E-01
  19.436  0.317E-01  0.317E-01
  19.446  0.316E-01  0.316E-01
  19.456  0.316E-01  0.316E-01
  19.466  0.315E-01  0.315E-01
  19.476  0.315E-01  0.315E-01
  19.486  0.315E-01  0.315E-01
  19.496  0.314E-01  0.314E-01
  19.506  0.314E-01  0.314E-01
  19.516  0.314E-01  0.314E-01
  19.526  0.314E-01  0.314E-01
  19.536  0.314E-01  0.314E-01
  19.546  0.314E-01  0.314E-01
  19.556  0.313E-01  0.313E-01
  19.566  0.313E-01  0.313E-01
  19.576  0.313E-01  0.313E-01
  19.586  0.312E-01  0.312E-01
  19.596  0.311E-01  0.311E-01
  19.606  0.310E-01  0.310E-01
  19.616  0.309E-01  0.309E-01
  19.626  0.307E-01  0.307E-01
  19.636  0.305E-01  0.305E-01
  19.646  0.302E-01  0.302E-01
  19.656  0.300E-01  0.300E-01
  19.666  0.297E-01  0.297E-01
  19.676  0.293E-01  0.293E-01
  19.686  0.290E-01  0.290E-01
  19.696  0.286E-01  0.286E-01
  19.706  0.282E-01  0.282E-01
  19.716  0.278E-01  0.278E-01
  19.726  0.274E-01  0.274E-01
  19.736  0.270E-01  0.270E-01
  19.746  0.266E-01  0.266E-01
  19.756  0.262E-01  0.262E-01
  19.766  0.259E-01  0.259E-01
  19.776  0.256E-01  0.256E-01
  19.786  0.254E-01  0.254E-01
  19.796  0.252E-01  0.252E-01
  19.806  0.250E-01  0.250E-01
  19.816  0.249E-01  0.249E-01
  19.826  0.248E-01  0.248E-01
  19.836  0.249E-01  0.249E-01
  19.846  0.249E-01  0.249E-01
  19.856  0.250E-01  0.250E-01
  19.866  0.252E-01  0.252E-01
  19.876  0.254E-01  0.254E-01
  19.886  0.256E-01  0.256E-01
  19.896  0.259E-01  0.259E-01
  19.906  0.261E-01  0.261E-01
  19.916  0.264E-01  0.264E-01
  19.926  0.267E-01  0.267E-01
  19.936  0.269E-01  0.269E-01
  19.946  0.271E-01  0.271E-01
  19.956  0.273E-01  0.273E-01
  19.966  0.275E-01  0.275E-01
  19.976  0.276E-01  0.276E-01
  19.986  0.276E-01  0.276E-01
  19.996  0.276E-01  0.276E-01
  20.006  0.275E-01  0.275E-01
  20.016  0.274E-01  0.274E-01
  20.026  0.273E-01  0.273E-01
  20.036  0.270E-01  0.270E-01
  20.046  0.268E-01  0.268E-01
  20.056  0.265E-01  0.265E-01
  20.066  0.262E-01  0.262E-01
  20.076  0.260E-01  0.260E-01
  20.086  0.257E-01  0.257E-01
  20.096  0.254E-01  0.254E-01
  20.106  0.252E-01  0.252E-01
  20.116  0.249E-01  0.249E-01
  20.126  0.247E-01  0.247E-01
  20.136  0.246E-01  0.246E-01
  20.146  0.245E-01  0.245E-01
  20.156  0.244E-01  0.244E-01
  20.166  0.244E-01  0.244E-01
  20.176  0.244E-01  0.244E-01
  20.186  0.244E-01  0.244E-01
  20.196  0.244E-01  0.244E-01
  20.206  0.245E-01  0.245E-01
  20.216  0.245E-01  0.245E-01
  20.226  0.246E-01  0.246E-01
  20.236  0.247E-01  0.247E-01
  20.246  0.247E-01  0.247E-01
  20.256  0.248E-01  0.248E-01
  20.266  0.248E-01  0.248E-01
  20.276  0.248E-01  0.248E-01
  20.286  0.248E-01  0.248E-01
  20.296  0.247E-01  0.247E-01
  20.306  0.246E-01  0.246E-01
  20.316  0.245E-01  0.245E-01
  20.326  0.243E-01  0.243E-01
  20.336  0.241E-01  0.241E-01
  20.346  0.239E-01  0.239E-01
  20.356  0.236E-01  0.236E-01
  20.366  0.234E-01  0.234E-01
  20.376  0.231E-01  0.231E-01
  20.386  0.228E-01  0.228E-01
  20.396  0.225E-01  0.225E-01
  20.406  0.222E-01  0.222E-01
  20.416  0.220E-01  0.220E-01
  20.426  0.217E-01  0.217E-01
  20.436  0.215E-01  0.215E-01
  20.446  0.213E-01  0.213E-01
  20.456  0.211E-01  0.211E-01
  20.466  0.210E-01  0.210E-01
  20.476  0.209E-01  0.209E-01
  20.486  0.209E-01  0.209E-01
  20.496  0.209E-01  0.209E-01
  20.506  0.210E-01  0.210E-01
  20.516  0.211E-01  0.211E-01
  20.526  0.212E-01  0.212E-01
  20.536  0.213E-01  0.213E-01
  20.546  0.215E-01  0.215E-01
  20.556  0.216E-01  0.216E-01
  20.566  0.218E-01  0.218E-01
  20.576  0.219E-01  0.219E-01
  20.586  0.221E-01  0.221E-01
  20.596  0.222E-01  0.222E-01
  20.606  0.223E-01  0.223E-01
  20.616  0.224E-01  0.224E-01
  20.626  0.225E-01  0.225E-01
  20.636  0.225E-01  0.225E-01
  20.646  0.225E-01  0.225E-01
  20.656  0.225E-01  0.225E-01
  20.666  0.225E-01  0.225E-01
  20.676  0.224E-01  0.224E-01
  20.686  0.223E-01  0.223E-01
  20.696  0.222E-01  0.222E-01
  20.706  0.221E-01  0.221E-01
  20.716  0.220E-01  0.220E-01
  20.726  0.219E-01  0.219E-01
  20.736  0.217E-01  0.217E-01
  20.746  0.216E-01  0.216E-01
  20.756  0.214E-01  0.214E-01
  20.766  0.213E-01  0.213E-01
  20.776  0.211E-01  0.211E-01
  20.786  0.210E-01  0.210E-01
  20.796  0.208E-01  0.208E-01
  20.806  0.206E-01  0.206E-01
  20.816  0.205E-01  0.205E-01
  20.826  0.203E-01  0.203E-01
  20.836  0.201E-01  0.201E-01
  20.846  0.199E-01  0.199E-01
  20.856  0.197E-01  0.197E-01
  20.866  0.195E-01  0.195E-01
  20.876  0.194E-01  0.194E-01
  20.886  0.192E-01  0.192E-01
  20.896  0.191E-01  0.191E-01
  20.906  0.190E-01  0.190E-01
  20.916  0.189E-01  0.189E-01
  20.926  0.188E-01  0.188E-01
  20.936  0.187E-01  0.187E-01
  20.946  0.187E-01  0.187E-01
  20.956  0.187E-01  0.187E-01
  20.966  0.188E-01  0.188E-01
  20.976  0.188E-01  0.188E-01
  20.986  0.189E-01  0.189E-01
  20.996  0.190E-01  0.190E-01
  21.006  0.192E-01  0.192E-01
  21.016  0.193E-01  0.193E-01
  21.026  0.194E-01  0.194E-01
  21.036  0.196E-01  0.196E-01
  21.046  0.197E-01  0.197E-01
  21.056  0.198E-01  0.198E-01
  21.066  0.199E-01  0.199E-01
  21.076  0.200E-01  0.200E-01
  21.086  0.200E-01  0.200E-01
  21.096  0.200E-01  0.200E-01
  21.106  0.200E-01  0.200E-01
  21.116  0.200E-01  0.200E-01
  21.126  0.200E-01  0.200E-01
  21.136  0.199E-01  0.199E-01
  21.146  0.198E-01  0.198E-01
  21.156  0.197E-01  0.197E-01
  21.166  0.196E-01  0.196E-01
  21.176  0.195E-01  0.195E-01
  21.186  0.194E-01  0.194E-01
  21.196  0.192E-01  0.192E-01
  21.206  0.191E-01  0.191E-01
  21.216  0.190E-01  0.190E-01
  21.226  0.189E-01  0.189E-01
  21.236  0.187E-01  0.187E-01
  21.246  0.186E-01  0.186E-01
  21.256  0.185E-01  0.185E-01
  21.266  0.184E-01  0.184E-01
  21.276  0.184E-01  0.184E-01
  21.286  0.183E-01  0.183E-01
  21.296  0.183E-01  0.183E-01
  21.306  0.182E-01  0.182E-01
  21.316  0.182E-01  0.182E-01
  21.326  0.182E-01  0.182E-01
  21.336  0.182E-01  0.182E-01
  21.346  0.182E-01  0.182E-01
  21.356  0.182E-01  0.182E-01
  21.366  0.182E-01  0.182E-01
  21.376  0.182E-01  0.182E-01
  21.386  0.182E-01  0.182E-01
  21.396  0.182E-01  0.182E-01
  21.406  0.182E-01  0.182E-01
  21.416  0.182E-01  0.182E-01
  21.426  0.182E-01  0.182E-01
  21.436  0.181E-01  0.181E-01
  21.446  0.181E-01  0.181E-01
  21.456  0.180E-01  0.180E-01
  21.466  0.179E-01  0.179E-01
  21.476  0.178E-01  0.178E-01
  21.486  0.177E-01  0.177E-01
  21.496  0.176E-01  0.176E-01
  21.506  0.174E-01  0.174E-01
  21.516  0.172E-01  0.172E-01
  21.526  0.171E-01  0.171E-01
  21.536  0.169E-01  0.169E-01
  21.546  0.167E-01  0.167E-01
  21.556  0.165E-01  0.165E-01
  21.566  0.164E-01  0.164E-01
  21.576  0.162E-01  0.162E-01
  21.586  0.160E-01  0.160E-01
  21.596  0.159E-01  0.159E-01
  21.606  0.158E-01  0.158E-01
  21.616  0.156E-01  0.156E-01
  21.626  0.155E-01  0.155E-01
  21.636  0.155E-01  0.155E-01
  21.646  0.154E-01  0.154E-01
  21.656  0.154E-01  0.154E-01
  21.666  0.153E-01  0.153E-01
  21.676  0.153E-01  0.153E-01
  21.686  0.153E-01  0.153E-01
  21.696  0.153E-01  0.153E-01
  21.706  0.153E-01  0.153E-01
  21.716  0.153E-01  0.153E-01
  21.726  0.153E-01  0.153E-01
  21.736  0.153E-01  0.153E-01
  21.746  0.153E-01  0.153E-01
  21.756  0.153E-01  0.153E-01
  21.766  0.153E-01  0.153E-01
  21.776  0.152E-01  0.152E-01
  21.786  0.152E-01  0.152E-01
  21.796  0.152E-01  0.152E-01
  21.806  0.152E-01  0.152E-01
  21.816  0.151E-01  0.151E-01
  21.826  0.151E-01  0.151E-01
  21.836  0.150E-01  0.150E-01
  21.846  0.150E-01  0.150E-01
  21.856  0.149E-01  0.149E-01
  21.866  0.149E-01  0.149E-01
  21.876  0.148E-01  0.148E-01
  21.886  0.148E-01  0.148E-01
  21.896  0.147E-01  0.147E-01
  21.906  0.146E-01  0.146E-01
  21.916  0.146E-01  0.146E-01
  21.926  0.145E-01  0.145E-01
  21.936  0.144E-01  0.144E-01
  21.946  0.144E-01  0.144E-01
  21.956  0.143E-01  0.143E-01
  21.966  0.142E-01  0.142E-01
  21.976  0.142E-01  0.142E-01
  21.986  0.141E-01  0.141E-01
  21.996  0.140E-01  0.140E-01
  22.006  0.140E-01  0.140E-01
  22.016  0.139E-01  0.139E-01
  22.026  0.138E-01  0.138E-01
  22.036  0.138E-01  0.138E-01
  22.046  0.137E-01  0.137E-01
  22.056  0.136E-01  0.136E-01
  22.066  0.136E-01  0.136E-01
  22.076  0.135E-01  0.135E-01
  22.086  0.134E-01  0.134E-01
  22.096  0.133E-01  0.133E-01
  22.106  0.132E-01  0.132E-01
  22.116  0.131E-01  0.131E-01
  22.126  0.129E-01  0.129E-01
  22.136  0.127E-01  0.127E-01
  22.146  0.126E-01  0.126E-01
  22.156  0.124E-01  0.124E-01
  22.166  0.122E-01  0.122E-01
  22.176  0.120E-01  0.120E-01
  22.186  0.117E-01  0.117E-01
  22.196  0.115E-01  0.115E-01
  22.206  0.113E-01  0.113E-01
  22.216  0.111E-01  0.111E-01
  22.226  0.108E-01  0.108E-01
  22.236  0.106E-01  0.106E-01
  22.246  0.105E-01  0.105E-01
  22.256  0.103E-01  0.103E-01
  22.266  0.102E-01  0.102E-01
  22.276  0.100E-01  0.100E-01
  22.286  0.994E-02  0.994E-02
  22.296  0.986E-02  0.986E-02
  22.306  0.981E-02  0.981E-02
  22.316  0.978E-02  0.978E-02
  22.326  0.978E-02  0.978E-02
  22.336  0.979E-02  0.979E-02
  22.346  0.982E-02  0.982E-02
  22.356  0.986E-02  0.986E-02
  22.366  0.991E-02  0.991E-02
  22.376  0.997E-02  0.997E-02
  22.386  0.100E-01  0.100E-01
  22.396  0.101E-01  0.101E-01
  22.406  0.102E-01  0.102E-01
  22.416  0.102E-01  0.102E-01
  22.426  0.103E-01  0.103E-01
  22.436  0.103E-01  0.103E-01
  22.446  0.103E-01  0.103E-01
  22.456  0.103E-01  0.103E-01
  22.466  0.103E-01  0.103E-01
  22.476  0.103E-01  0.103E-01
  22.486  0.103E-01  0.103E-01
  22.496  0.102E-01  0.102E-01
  22.506  0.102E-01  0.102E-01
  22.516  0.101E-01  0.101E-01
  22.526  0.999E-02  0.999E-02
  22.536  0.989E-02  0.989E-02
  22.546  0.978E-02  0.978E-02
  22.556  0.967E-02  0.967E-02
  22.566  0.956E-02  0.956E-02
  22.576  0.944E-02  0.944E-02
  22.586  0.933E-02  0.933E-02
  22.596  0.922E-02  0.922E-02
  22.606  0.912E-02  0.912E-02
  22.616  0.903E-02  0.903E-02
  22.626  0.895E-02  0.895E-02
  22.636  0.888E-02  0.888E-02
  22.646  0.883E-02  0.883E-02
  22.656  0.879E-02  0.879E-02
  22.666  0.877E-02  0.877E-02
  22.676  0.876E-02  0.876E-02
  22.686  0.876E-02  0.876E-02
  22.696  0.878E-02  0.878E-02
  22.706  0.881E-02  0.881E-02
  22.716  0.884E-02  0.884E-02
  22.726  0.888E-02  0.888E-02
  22.736  0.893E-02  0.893E-02
  22.746  0.898E-02  0.898E-02
  22.756  0.902E-02  0.902E-02
  22.766  0.906E-02  0.906E-02
  22.776  0.910E-02  0.910E-02
  22.786  0.912E-02  0.912E-02
  22.796  0.914E-02  0.914E-02
  22.806  0.914E-02  0.914E-02
  22.816  0.913E-02  0.913E-02
  22.826  0.910E-02  0.910E-02
  22.836  0.906E-02  0.906E-02
  22.846  0.900E-02  0.900E-02
  22.856  0.893E-02  0.893E-02
  22.866  0.884E-02  0.884E-02
  22.876  0.874E-02  0.874E-02
  22.886  0.863E-02  0.863E-02
  22.896  0.850E-02  0.850E-02
  22.906  0.838E-02  0.838E-02
  22.916  0.824E-02  0.824E-02
  22.926  0.810E-02  0.810E-02
  22.936  0.796E-02  0.796E-02
  22.946  0.783E-02  0.783E-02
  22.956  0.770E-02  0.770E-02
  22.966  0.757E-02  0.757E-02
  22.976  0.745E-02  0.745E-02
  22.986  0.734E-02  0.734E-02
  22.996  0.724E-02  0.724E-02
  23.006  0.715E-02  0.715E-02
  23.016  0.706E-02  0.706E-02
  23.026  0.699E-02  0.699E-02
  23.036  0.693E-02  0.693E-02
  23.046  0.688E-02  0.688E-02
  23.056  0.684E-02  0.684E-02
  23.066  0.680E-02  0.680E-02
  23.076  0.677E-02  0.677E-02
  23.086  0.674E-02  0.674E-02
  23.096  0.671E-02  0.671E-02
  23.106  0.669E-02  0.669E-02
  23.116  0.666E-02  0.666E-02
  23.126  0.663E-02  0.663E-02
  23.136  0.660E-02  0.660E-02
  23.146  0.657E-02  0.657E-02
  23.156  0.653E-02  0.653E-02
  23.166  0.649E-02  0.649E-02
  23.176  0.644E-02  0.644E-02
  23.186  0.639E-02  0.639E-02
  23.196  0.633E-02  0.633E-02
  23.206  0.626E-02  0.626E-02
  23.216  0.619E-02  0.619E-02
  23.226  0.612E-02  0.612E-02
  23.236  0.605E-02  0.605E-02
  23.246  0.597E-02  0.597E-02
  23.256  0.589E-02  0.589E-02
  23.266  0.581E-02  0.581E-02
  23.276  0.572E-02  0.572E-02
  23.286  0.564E-02  0.564E-02
  23.296  0.556E-02  0.556E-02
  23.306  0.548E-02  0.548E-02
  23.316  0.540E-02  0.540E-02
  23.326  0.532E-02  0.532E-02
  23.336  0.524E-02  0.524E-02
  23.346  0.517E-02  0.517E-02
  23.356  0.509E-02  0.509E-02
  23.366  0.502E-02  0.502E-02
  23.376  0.494E-02  0.494E-02
  23.386  0.487E-02  0.487E-02
  23.396  0.479E-02  0.479E-02
  23.406  0.471E-02  0.471E-02
  23.416  0.463E-02  0.463E-02
  23.426  0.454E-02  0.454E-02
  23.436  0.445E-02  0.445E-02
  23.446  0.436E-02  0.436E-02
  23.456  0.426E-02  0.426E-02
  23.466  0.415E-02  0.415E-02
  23.476  0.404E-02  0.404E-02
  23.486  0.393E-02  0.393E-02
  23.496  0.381E-02  0.381E-02
  23.506  0.369E-02  0.369E-02
  23.516  0.357E-02  0.357E-02
  23.526  0.345E-02  0.345E-02
  23.536  0.332E-02  0.332E-02
  23.546  0.320E-02  0.320E-02
  23.556  0.308E-02  0.308E-02
  23.566  0.296E-02  0.296E-02
  23.576  0.285E-02  0.285E-02
  23.586  0.274E-02  0.274E-02
  23.596  0.263E-02  0.263E-02
  23.606  0.254E-02  0.254E-02
  23.616  0.245E-02  0.245E-02
  23.626  0.237E-02  0.237E-02
  23.636  0.230E-02  0.230E-02
  23.646  0.224E-02  0.224E-02
  23.656  0.218E-02  0.218E-02
  23.666  0.214E-02  0.214E-02
  23.676  0.210E-02  0.210E-02
  23.686  0.207E-02  0.207E-02
  23.696  0.205E-02  0.205E-02
  23.706  0.203E-02  0.203E-02
  23.716  0.202E-02  0.202E-02
  23.726  0.202E-02  0.202E-02
  23.736  0.202E-02  0.202E-02
  23.746  0.202E-02  0.202E-02
  23.756  0.202E-02  0.202E-02
  23.766  0.202E-02  0.202E-02
  23.776  0.203E-02  0.203E-02
  23.786  0.203E-02  0.203E-02
  23.796  0.203E-02  0.203E-02
  23.806  0.203E-02  0.203E-02
  23.816  0.203E-02  0.203E-02
  23.826  0.202E-02  0.202E-02
  23.836  0.201E-02  0.201E-02
  23.846  0.199E-02  0.199E-02
  23.856  0.198E-02  0.198E-02
  23.866  0.195E-02  0.195E-02
  23.876  0.193E-02  0.193E-02
  23.886  0.190E-02  0.190E-02
  23.896  0.186E-02  0.186E-02
  23.906  0.183E-02  0.183E-02
  23.916  0.179E-02  0.179E-02
  23.926  0.174E-02  0.174E-02
  23.936  0.170E-02  0.170E-02
  23.946  0.165E-02  0.165E-02
  23.956  0.161E-02  0.161E-02
  23.966  0.156E-02  0.156E-02
  23.976  0.151E-02  0.151E-02
  23.986  0.146E-02  0.146E-02
  23.996  0.141E-02  0.141E-02
  24.006  0.136E-02  0.136E-02
  24.016  0.131E-02  0.131E-02
  24.026  0.126E-02  0.126E-02
  24.036  0.122E-02  0.122E-02
  24.046  0.117E-02  0.117E-02
  24.056  0.113E-02  0.113E-02
  24.066  0.108E-02  0.108E-02
  24.076  0.104E-02  0.104E-02
  24.086  0.999E-03  0.999E-03
  24.096  0.960E-03  0.960E-03
  24.106  0.922E-03  0.922E-03
  24.116  0.885E-03  0.885E-03
  24.126  0.850E-03  0.850E-03
  24.136  0.816E-03  0.816E-03
  24.146  0.784E-03  0.784E-03
  24.156  0.754E-03  0.754E-03
  24.166  0.725E-03  0.725E-03
  24.176  0.698E-03  0.698E-03
  24.186  0.672E-03  0.672E-03
  24.196  0.648E-03  0.648E-03
  24.206  0.625E-03  0.625E-03
  24.216  0.603E-03  0.603E-03
  24.226  0.582E-03  0.582E-03
  24.236  0.562E-03  0.562E-03
  24.246  0.544E-03  0.544E-03
  24.256  0.526E-03  0.526E-03
  24.266  0.509E-03  0.509E-03
  24.276  0.493E-03  0.493E-03
  24.286  0.477E-03  0.477E-03
  24.296  0.463E-03  0.463E-03
  24.306  0.449E-03  0.449E-03
  24.316  0.435E-03  0.435E-03
  24.326  0.423E-03  0.423E-03
  24.336  0.412E-03  0.412E-03
  24.346  0.402E-03  0.402E-03
  24.356  0.393E-03  0.393E-03
  24.366  0.385E-03  0.385E-03
  24.376  0.379E-03  0.379E-03
  24.386  0.375E-03  0.375E-03
  24.396  0.373E-03  0.373E-03
  24.406  0.373E-03  0.373E-03
  24.416  0.375E-03  0.375E-03
  24.426  0.379E-03  0.379E-03
  24.436  0.385E-03  0.385E-03
  24.446  0.393E-03  0.393E-03
  24.456  0.404E-03  0.404E-03
  24.466  0.416E-03  0.416E-03
  24.476  0.431E-03  0.431E-03
  24.486  0.447E-03  0.447E-03
  24.496  0.465E-03  0.465E-03
  24.506  0.485E-03  0.485E-03
  24.516  0.505E-03  0.505E-03
  24.526  0.526E-03  0.526E-03
  24.536  0.548E-03  0.548E-03
  24.546  0.570E-03  0.570E-03
  24.556  0.591E-03  0.591E-03
  24.566  0.612E-03  0.612E-03
  24.576  0.632E-03  0.632E-03
  24.586  0.650E-03  0.650E-03
  24.596  0.666E-03  0.666E-03
  24.606  0.680E-03  0.680E-03
  24.616  0.692E-03  0.692E-03
  24.626  0.700E-03  0.700E-03
  24.636  0.706E-03  0.706E-03
  24.646  0.708E-03  0.708E-03
  24.656  0.707E-03  0.707E-03
  24.666  0.703E-03  0.703E-03
  24.676  0.696E-03  0.696E-03
  24.686  0.685E-03  0.685E-03
  24.696  0.672E-03  0.672E-03
  24.706  0.655E-03  0.655E-03
  24.716  0.637E-03  0.637E-03
  24.726  0.616E-03  0.616E-03
  24.736  0.594E-03  0.594E-03
  24.746  0.570E-03  0.570E-03
  24.756  0.546E-03  0.546E-03
  24.766  0.520E-03  0.520E-03
  24.776  0.495E-03  0.495E-03
  24.786  0.469E-03  0.469E-03
  24.796  0.444E-03  0.444E-03
  24.806  0.419E-03  0.419E-03
  24.816  0.396E-03  0.396E-03
  24.826  0.373E-03  0.373E-03
  24.836  0.351E-03  0.351E-03
  24.846  0.330E-03  0.330E-03
  24.856  0.311E-03  0.311E-03
  24.866  0.292E-03  0.292E-03
  24.876  0.275E-03  0.275E-03
  24.886  0.259E-03  0.259E-03
  24.896  0.245E-03  0.245E-03
  24.906  0.231E-03  0.231E-03
  24.916  0.218E-03  0.218E-03
  24.926  0.207E-03  0.207E-03
  24.936  0.196E-03  0.196E-03
  24.946  0.186E-03  0.186E-03
  24.956  0.176E-03  0.176E-03
  24.966  0.167E-03  0.167E-03
  24.976  0.159E-03  0.159E-03
  24.986  0.151E-03  0.151E-03
  24.996  0.143E-03  0.143E-03
  25.006  0.136E-03  0.136E-03
  25.016  0.129E-03  0.129E-03
  25.026  0.123E-03  0.123E-03
  25.036  0.116E-03  0.116E-03
  25.046  0.110E-03  0.110E-03
  25.056  0.104E-03  0.104E-03
  25.066  0.988E-04  0.988E-04
  25.076  0.937E-04  0.937E-04
  25.086  0.888E-04  0.888E-04
  25.096  0.842E-04  0.842E-04
  25.106  0.799E-04  0.799E-04
  25.116  0.760E-04  0.760E-04
  25.126  0.723E-04  0.723E-04
  25.136  0.690E-04  0.690E-04
  25.146  0.660E-04  0.660E-04
  25.156  0.633E-04  0.633E-04
  25.166  0.608E-04  0.608E-04
  25.176  0.587E-04  0.587E-04
  25.186  0.570E-04  0.570E-04
  25.196  0.556E-04  0.556E-04
  25.206  0.545E-04  0.545E-04
  25.216  0.540E-04  0.540E-04
  25.226  0.539E-04  0.539E-04
  25.236  0.545E-04  0.545E-04
  25.246  0.557E-04  0.557E-04
  25.256  0.577E-04  0.577E-04
  25.266  0.606E-04  0.606E-04
  25.276  0.645E-04  0.645E-04
  25.286  0.695E-04  0.695E-04
  25.296  0.756E-04  0.756E-04
  25.306  0.830E-04  0.830E-04
  25.316  0.917E-04  0.917E-04
  25.326  0.102E-03  0.102E-03
  25.336  0.113E-03  0.113E-03
  25.346  0.126E-03  0.126E-03
  25.356  0.139E-03  0.139E-03
  25.366  0.154E-03  0.154E-03
  25.376  0.169E-03  0.169E-03
  25.386  0.185E-03  0.185E-03
  25.396  0.201E-03  0.201E-03
  25.406  0.217E-03  0.217E-03
  25.416  0.232E-03  0.232E-03
  25.426  0.247E-03  0.247E-03
  25.436  0.260E-03  0.260E-03
  25.446  0.272E-03  0.272E-03
  25.456  0.283E-03  0.283E-03
  25.466  0.291E-03  0.291E-03
  25.476  0.296E-03  0.296E-03
  25.486  0.300E-03  0.300E-03
  25.496  0.300E-03  0.300E-03
  25.506  0.299E-03  0.299E-03
  25.516  0.294E-03  0.294E-03
  25.526  0.288E-03  0.288E-03
  25.536  0.279E-03  0.279E-03
  25.546  0.269E-03  0.269E-03
  25.556  0.256E-03  0.256E-03
  25.566  0.243E-03  0.243E-03
  25.576  0.228E-03  0.228E-03
  25.586  0.213E-03  0.213E-03
  25.596  0.198E-03  0.198E-03
  25.606  0.182E-03  0.182E-03
  25.616  0.166E-03  0.166E-03
  25.626  0.151E-03  0.151E-03
  25.636  0.137E-03  0.137E-03
  25.646  0.123E-03  0.123E-03
  25.656  0.110E-03  0.110E-03
  25.666  0.973E-04  0.973E-04
  25.676  0.860E-04  0.860E-04
  25.686  0.756E-04  0.756E-04
  25.696  0.662E-04  0.662E-04
  25.706  0.577E-04  0.577E-04
  25.716  0.501E-04  0.501E-04
  25.726  0.433E-04  0.433E-04
  25.736  0.372E-04  0.372E-04
  25.746  0.319E-04  0.319E-04
  25.756  0.273E-04  0.273E-04
  25.766  0.233E-04  0.233E-04
  25.776  0.198E-04  0.198E-04
  25.786  0.168E-04  0.168E-04
  25.796  0.142E-04  0.142E-04
  25.806  0.120E-04  0.120E-04
  25.816  0.102E-04  0.102E-04
  25.826  0.862E-05  0.862E-05
  25.836  0.733E-05  0.733E-05
  25.846  0.627E-05  0.627E-05
  25.856  0.540E-05  0.540E-05
  25.866  0.471E-05  0.471E-05
  25.876  0.416E-05  0.416E-05
  25.886  0.373E-05  0.373E-05
  25.896  0.342E-05  0.342E-05
  25.906  0.319E-05  0.319E-05
  25.916  0.304E-05  0.304E-05
  25.926  0.295E-05  0.295E-05
  25.936  0.292E-05  0.292E-05
  25.946  0.294E-05  0.294E-05
  25.956  0.301E-05  0.301E-05
  25.966  0.312E-05  0.312E-05
  25.976  0.327E-05  0.327E-05
  25.986  0.345E-05  0.345E-05
  25.996  0.369E-05  0.369E-05
  26.006  0.397E-05  0.397E-05
  26.016  0.431E-05  0.431E-05
  26.026  0.472E-05  0.472E-05
  26.036  0.520E-05  0.520E-05
  26.046  0.578E-05  0.578E-05
  26.056  0.648E-05  0.648E-05
  26.066  0.730E-05  0.730E-05
  26.076  0.828E-05  0.828E-05
  26.086  0.944E-05  0.944E-05
  26.096  0.108E-04  0.108E-04
  26.106  0.124E-04  0.124E-04
  26.116  0.142E-04  0.142E-04
  26.126  0.163E-04  0.163E-04
  26.136  0.187E-04  0.187E-04
  26.146  0.215E-04  0.215E-04
  26.156  0.245E-04  0.245E-04
  26.166  0.279E-04  0.279E-04
  26.176  0.316E-04  0.316E-04
  26.186  0.356E-04  0.356E-04
  26.196  0.398E-04  0.398E-04
  26.206  0.443E-04  0.443E-04
  26.216  0.490E-04  0.490E-04
  26.226  0.538E-04  0.538E-04
  26.236  0.587E-04  0.587E-04
  26.246  0.635E-04  0.635E-04
  26.256  0.681E-04  0.681E-04
  26.266  0.725E-04  0.725E-04
  26.276  0.766E-04  0.766E-04
  26.286  0.801E-04  0.801E-04
  26.296  0.831E-04  0.831E-04
  26.306  0.855E-04  0.855E-04
  26.316  0.871E-04  0.871E-04
  26.326  0.880E-04  0.880E-04
  26.336  0.881E-04  0.881E-04
  26.346  0.873E-04  0.873E-04
  26.356  0.858E-04  0.858E-04
  26.366  0.835E-04  0.835E-04
  26.376  0.805E-04  0.805E-04
  26.386  0.768E-04  0.768E-04
  26.396  0.727E-04  0.727E-04
  26.406  0.681E-04  0.681E-04
  26.416  0.632E-04  0.632E-04
  26.426  0.580E-04  0.580E-04
  26.436  0.528E-04  0.528E-04
  26.446  0.476E-04  0.476E-04
  26.456  0.425E-04  0.425E-04
  26.466  0.376E-04  0.376E-04
  26.476  0.329E-04  0.329E-04
  26.486  0.285E-04  0.285E-04
  26.496  0.245E-04  0.245E-04
  26.506  0.208E-04  0.208E-04
  26.516  0.175E-04  0.175E-04
  26.526  0.146E-04  0.146E-04
  26.536  0.121E-04  0.121E-04
  26.546  0.987E-05  0.987E-05
  26.556  0.800E-05  0.800E-05
  26.566  0.642E-05  0.642E-05
  26.576  0.510E-05  0.510E-05
  26.586  0.401E-05  0.401E-05
  26.596  0.313E-05  0.313E-05
  26.606  0.242E-05  0.242E-05
  26.616  0.185E-05  0.185E-05
  26.626  0.140E-05  0.140E-05
  26.636  0.105E-05  0.105E-05
  26.646  0.783E-06  0.783E-06
  26.656  0.578E-06  0.578E-06
  26.666  0.422E-06  0.422E-06
  26.676  0.306E-06  0.306E-06
  26.686  0.221E-06  0.221E-06
  26.696  0.158E-06  0.158E-06
  26.706  0.114E-06  0.114E-06
  26.716  0.822E-07  0.822E-07
  26.726  0.609E-07  0.609E-07
  26.736  0.475E-07  0.475E-07
  26.746  0.404E-07  0.404E-07
  26.756  0.386E-07  0.386E-07
  26.766  0.415E-07  0.415E-07
  26.776  0.492E-07  0.492E-07
  26.786  0.619E-07  0.619E-07
  26.796  0.803E-07  0.803E-07
  26.806  0.105E-06  0.105E-06
  26.816  0.138E-06  0.138E-06
  26.826  0.180E-06  0.180E-06
  26.836  0.233E-06  0.233E-06
  26.846  0.299E-06  0.299E-06
  26.856  0.380E-06  0.380E-06
  26.866  0.478E-06  0.478E-06
  26.876  0.595E-06  0.595E-06
  26.886  0.733E-06  0.733E-06
  26.896  0.894E-06  0.894E-06
  26.906  0.108E-05  0.108E-05
  26.916  0.129E-05  0.129E-05
  26.926  0.152E-05  0.152E-05
  26.936  0.178E-05  0.178E-05
  26.946  0.207E-05  0.207E-05
  26.956  0.237E-05  0.237E-05
  26.966  0.270E-05  0.270E-05
  26.976  0.304E-05  0.304E-05
  26.986  0.339E-05  0.339E-05
  26.996  0.374E-05  0.374E-05
  27.006  0.410E-05  0.410E-05
  27.016  0.445E-05  0.445E-05
  27.026  0.479E-05  0.479E-05
  27.036  0.510E-05  0.510E-05
  27.046  0.540E-05  0.540E-05
  27.056  0.566E-05  0.566E-05
  27.066  0.589E-05  0.589E-05
  27.076  0.609E-05  0.609E-05
  27.086  0.624E-05  0.624E-05
  27.096  0.635E-05  0.635E-05
  27.106  0.642E-05  0.642E-05
  27.116  0.644E-05  0.644E-05
  27.126  0.642E-05  0.642E-05
  27.136  0.635E-05  0.635E-05
  27.146  0.625E-05  0.625E-05
  27.156  0.610E-05  0.610E-05
  27.166  0.593E-05  0.593E-05
  27.176  0.572E-05  0.572E-05
  27.186  0.548E-05  0.548E-05
  27.196  0.521E-05  0.521E-05
  27.206  0.493E-05  0.493E-05
  27.216  0.463E-05  0.463E-05
  27.226  0.431E-05  0.431E-05
  27.236  0.399E-05  0.399E-05
  27.246  0.367E-05  0.367E-05
  27.256  0.334E-05  0.334E-05
  27.266  0.302E-05  0.302E-05
  27.276  0.271E-05  0.271E-05
  27.286  0.241E-05  0.241E-05
  27.296  0.213E-05  0.213E-05
  27.306  0.186E-05  0.186E-05
  27.316  0.161E-05  0.161E-05
  27.326  0.138E-05  0.138E-05
  27.336  0.118E-05  0.118E-05
  27.346  0.992E-06  0.992E-06
  27.356  0.828E-06  0.828E-06
  27.366  0.684E-06  0.684E-06
  27.376  0.560E-06  0.560E-06
  27.386  0.454E-06  0.454E-06
  27.396  0.364E-06  0.364E-06
  27.406  0.289E-06  0.289E-06
  27.416  0.227E-06  0.227E-06
  27.426  0.177E-06  0.177E-06
  27.436  0.136E-06  0.136E-06
  27.446  0.104E-06  0.104E-06
  27.456  0.783E-07  0.783E-07
  27.466  0.584E-07  0.584E-07
  27.476  0.431E-07  0.431E-07
  27.486  0.315E-07  0.315E-07
  27.496  0.228E-07  0.228E-07
  27.506  0.163E-07  0.163E-07
  27.516  0.115E-07  0.115E-07
  27.526  0.809E-08  0.809E-08
  27.536  0.561E-08  0.561E-08
  27.546  0.384E-08  0.384E-08
  27.556  0.261E-08  0.261E-08
  27.566  0.175E-08  0.175E-08
  27.576  0.116E-08  0.116E-08
  27.586  0.763E-09  0.763E-09
  27.596  0.496E-09  0.496E-09
  27.606  0.319E-09  0.319E-09