# E (eV)  dos(E)    pdos(E)
  -3.634  0.162E-06  0.162E-06
  -3.624  0.259E-06  0.259E-06
  -3.614  0.410E-06  0.410E-06
  -3.604  0.643E-06  0.642E-06
  -3.594  0.996E-06  0.996E-06
  -3.584  0.153E-05  0.153E-05
  -3.574  0.232E-05  0.232E-05
  -3.564  0.350E-05  0.349E-05
  -3.554  0.521E-05  0.520E-05
  -3.544  0.768E-05  0.768E-05
  -3.534  0.112E-04  0.112E-04
  -3.524  0.162E-04  0.162E-04
  -3.514  0.232E-04  0.232E-04
  -3.504  0.329E-04  0.329E-04
  -3.494  0.462E-04  0.462E-04
  -3.484  0.643E-04  0.643E-04
  -3.474  0.886E-04  0.886E-04
  -3.464  0.121E-03  0.121E-03
  -3.454  0.163E-03  0.163E-03
  -3.444  0.219E-03  0.219E-03
  -3.434  0.290E-03  0.290E-03
  -3.424  0.381E-03  0.381E-03
  -3.414  0.497E-03  0.496E-03
  -3.404  0.641E-03  0.640E-03
  -3.394  0.819E-03  0.819E-03
  -3.384  0.104E-02  0.104E-02
  -3.374  0.130E-02  0.130E-02
  -3.364  0.162E-02  0.162E-02
  -3.354  0.200E-02  0.200E-02
  -3.344  0.245E-02  0.245E-02
  -3.334  0.298E-02  0.297E-02
  -3.324  0.358E-02  0.358E-02
  -3.314  0.427E-02  0.427E-02
  -3.304  0.506E-02  0.506E-02
  -3.294  0.595E-02  0.594E-02
  -3.284  0.693E-02  0.693E-02
  -3.274  0.802E-02  0.802E-02
  -3.264  0.921E-02  0.921E-02
  -3.254  0.105E-01  0.105E-01
  -3.244  0.119E-01  0.119E-01
  -3.234  0.134E-01  0.134E-01
  -3.224  0.149E-01  0.149E-01
  -3.214  0.166E-01  0.166E-01
  -3.204  0.183E-01  0.183E-01
  -3.194  0.201E-01  0.201E-01
  -3.184  0.219E-01  0.219E-01
  -3.174  0.237E-01  0.237E-01
  -3.164  0.256E-01  0.256E-01
  -3.154  0.275E-01  0.275E-01
  -3.144  0.294E-01  0.294E-01
  -3.134  0.313E-01  0.313E-01
  -3.124  0.331E-01  0.331E-01
  -3.114  0.350E-01  0.350E-01
  -3.104  0.368E-01  0.368E-01
  -3.094  0.386E-01  0.386E-01
  -3.084  0.403E-01  0.403E-01
  -3.074  0.420E-01  0.420E-01
  -3.064  0.436E-01  0.436E-01
  -3.054  0.452E-01  0.452E-01
  -3.044  0.468E-01  0.468E-01
  -3.034  0.483E-01  0.483E-01
  -3.024  0.498E-01  0.497E-01
  -3.014  0.512E-01  0.511E-01
  -3.004  0.526E-01  0.525E-01
  -2.994  0.539E-01  0.539E-01
  -2.984  0.552E-01  0.552E-01
  -2.974  0.564E-01  0.564E-01
  -2.964  0.577E-01  0.576E-01
  -2.954  0.589E-01  0.588E-01
  -2.944  0.600E-01  0.600E-01
  -2.934  0.612E-01  0.612E-01
  -2.924  0.623E-01  0.623E-01
  -2.914  0.634E-01  0.634E-01
  -2.904  0.645E-01  0.644E-01
  -2.894  0.655E-01  0.655E-01
  -2.884  0.666E-01  0.665E-01
  -2.874  0.676E-01  0.676E-01
  -2.864  0.686E-01  0.686E-01
  -2.854  0.696E-01  0.696E-01
  -2.844  0.706E-01  0.705E-01
  -2.834  0.715E-01  0.715E-01
  -2.824  0.725E-01  0.724E-01
  -2.814  0.734E-01  0.734E-01
  -2.804  0.743E-01  0.743E-01
  -2.794  0.752E-01  0.752E-01
  -2.784  0.761E-01  0.761E-01
  -2.774  0.770E-01  0.769E-01
  -2.764  0.779E-01  0.778E-01
  -2.754  0.787E-01  0.787E-01
  -2.744  0.796E-01  0.795E-01
  -2.734  0.804E-01  0.804E-01
  -2.724  0.813E-01  0.812E-01
  -2.714  0.821E-01  0.821E-01
  -2.704  0.829E-01  0.829E-01
  -2.694  0.838E-01  0.837E-01
  -2.684  0.846E-01  0.845E-01
  -2.674  0.854E-01  0.853E-01
  -2.664  0.862E-01  0.861E-01
  -2.654  0.870E-01  0.869E-01
  -2.644  0.877E-01  0.877E-01
  -2.634  0.885E-01  0.884E-01
  -2.624  0.892E-01  0.892E-01
  -2.614  0.900E-01  0.899E-01
  -2.604  0.907E-01  0.906E-01
  -2.594  0.914E-01  0.914E-01
  -2.584  0.921E-01  0.921E-01
  -2.574  0.929E-01  0.928E-01
  -2.564  0.936E-01  0.935E-01
  -2.554  0.943E-01  0.943E-01
  -2.544  0.951E-01  0.950E-01
  -2.534  0.958E-01  0.957E-01
  -2.524  0.965E-01  0.965E-01
  -2.514  0.973E-01  0.972E-01
  -2.504  0.980E-01  0.979E-01
  -2.494  0.987E-01  0.987E-01
  -2.484  0.994E-01  0.994E-01
  -2.474  0.100E+00  0.100E+00
  -2.464  0.101E+00  0.101E+00
  -2.454  0.101E+00  0.101E+00
  -2.444  0.102E+00  0.102E+00
  -2.434  0.103E+00  0.103E+00
  -2.424  0.103E+00  0.103E+00
  -2.414  0.104E+00  0.104E+00
  -2.404  0.104E+00  0.104E+00
  -2.394  0.105E+00  0.105E+00
  -2.384  0.106E+00  0.106E+00
  -2.374  0.106E+00  0.106E+00
  -2.364  0.107E+00  0.107E+00
  -2.354  0.108E+00  0.108E+00
  -2.344  0.108E+00  0.108E+00
  -2.334  0.109E+00  0.109E+00
  -2.324  0.110E+00  0.110E+00
  -2.314  0.110E+00  0.110E+00
  -2.304  0.111E+00  0.111E+00
  -2.294  0.112E+00  0.112E+00
  -2.284  0.113E+00  0.112E+00
  -2.274  0.113E+00  0.113E+00
  -2.264  0.114E+00  0.114E+00
  -2.254  0.114E+00  0.114E+00
  -2.244  0.115E+00  0.115E+00
  -2.234  0.115E+00  0.115E+00
  -2.224  0.116E+00  0.116E+00
  -2.214  0.116E+00  0.116E+00
  -2.204  0.117E+00  0.117E+00
  -2.194  0.117E+00  0.117E+00
  -2.184  0.118E+00  0.118E+00
  -2.174  0.118E+00  0.118E+00
  -2.164  0.119E+00  0.119E+00
  -2.154  0.119E+00  0.119E+00
  -2.144  0.120E+00  0.120E+00
  -2.134  0.121E+00  0.120E+00
  -2.124  0.121E+00  0.121E+00
  -2.114  0.122E+00  0.122E+00
  -2.104  0.123E+00  0.123E+00
  -2.094  0.123E+00  0.123E+00
  -2.084  0.124E+00  0.124E+00
  -2.074  0.125E+00  0.125E+00
  -2.064  0.126E+00  0.125E+00
  -2.054  0.126E+00  0.126E+00
  -2.044  0.127E+00  0.127E+00
  -2.034  0.127E+00  0.127E+00
  -2.024  0.128E+00  0.128E+00
  -2.014  0.128E+00  0.128E+00
  -2.004  0.128E+00  0.128E+00
  -1.994  0.129E+00  0.129E+00
  -1.984  0.129E+00  0.129E+00
  -1.974  0.129E+00  0.129E+00
  -1.964  0.130E+00  0.130E+00
  -1.954  0.130E+00  0.130E+00
  -1.944  0.130E+00  0.130E+00
  -1.934  0.131E+00  0.131E+00
  -1.924  0.131E+00  0.131E+00
  -1.914  0.132E+00  0.132E+00
  -1.904  0.133E+00  0.132E+00
  -1.894  0.133E+00  0.133E+00
  -1.884  0.134E+00  0.134E+00
  -1.874  0.135E+00  0.135E+00
  -1.864  0.136E+00  0.135E+00
  -1.854  0.136E+00  0.136E+00
  -1.844  0.137E+00  0.137E+00
  -1.834  0.138E+00  0.138E+00
  -1.824  0.139E+00  0.139E+00
  -1.814  0.139E+00  0.139E+00
  -1.804  0.140E+00  0.140E+00
  -1.794  0.140E+00  0.140E+00
  -1.784  0.141E+00  0.141E+00
  -1.774  0.141E+00  0.141E+00
  -1.764  0.141E+00  0.141E+00
  -1.754  0.142E+00  0.141E+00
  -1.744  0.142E+00  0.142E+00
  -1.734  0.142E+00  0.142E+00
  -1.724  0.142E+00  0.142E+00
  -1.714  0.142E+00  0.142E+00
  -1.704  0.142E+00  0.142E+00
  -1.694  0.142E+00  0.142E+00
  -1.684  0.143E+00  0.143E+00
  -1.674  0.143E+00  0.143E+00
  -1.664  0.144E+00  0.143E+00
  -1.654  0.144E+00  0.144E+00
  -1.644  0.145E+00  0.145E+00
  -1.634  0.146E+00  0.145E+00
  -1.624  0.146E+00  0.146E+00
  -1.614  0.147E+00  0.147E+00
  -1.604  0.148E+00  0.148E+00
  -1.594  0.149E+00  0.149E+00
  -1.584  0.150E+00  0.150E+00
  -1.574  0.151E+00  0.151E+00
  -1.564  0.152E+00  0.152E+00
  -1.554  0.153E+00  0.152E+00
  -1.544  0.153E+00  0.153E+00
  -1.534  0.154E+00  0.154E+00
  -1.524  0.154E+00  0.154E+00
  -1.514  0.154E+00  0.154E+00
  -1.504  0.154E+00  0.154E+00
  -1.494  0.155E+00  0.154E+00
  -1.484  0.155E+00  0.154E+00
  -1.474  0.154E+00  0.154E+00
  -1.464  0.154E+00  0.154E+00
  -1.454  0.154E+00  0.154E+00
  -1.444  0.154E+00  0.154E+00
  -1.434  0.154E+00  0.154E+00
  -1.424  0.154E+00  0.154E+00
  -1.414  0.155E+00  0.154E+00
  -1.404  0.155E+00  0.155E+00
  -1.394  0.155E+00  0.155E+00
  -1.384  0.156E+00  0.156E+00
  -1.374  0.157E+00  0.156E+00
  -1.364  0.157E+00  0.157E+00
  -1.354  0.158E+00  0.158E+00
  -1.344  0.159E+00  0.159E+00
  -1.334  0.160E+00  0.160E+00
  -1.324  0.161E+00  0.161E+00
  -1.314  0.162E+00  0.162E+00
  -1.304  0.163E+00  0.163E+00
  -1.294  0.164E+00  0.164E+00
  -1.284  0.165E+00  0.165E+00
  -1.274  0.166E+00  0.165E+00
  -1.264  0.166E+00  0.166E+00
  -1.254  0.167E+00  0.167E+00
  -1.244  0.167E+00  0.167E+00
  -1.234  0.168E+00  0.167E+00
  -1.224  0.168E+00  0.168E+00
  -1.214  0.168E+00  0.168E+00
  -1.204  0.168E+00  0.168E+00
  -1.194  0.168E+00  0.168E+00
  -1.184  0.168E+00  0.167E+00
  -1.174  0.167E+00  0.167E+00
  -1.164  0.167E+00  0.167E+00
  -1.154  0.167E+00  0.167E+00
  -1.144  0.167E+00  0.167E+00
  -1.134  0.167E+00  0.166E+00
  -1.124  0.167E+00  0.166E+00
  -1.114  0.167E+00  0.167E+00
  -1.104  0.167E+00  0.167E+00
  -1.094  0.167E+00  0.167E+00
  -1.084  0.168E+00  0.168E+00
  -1.074  0.168E+00  0.168E+00
  -1.064  0.169E+00  0.169E+00
  -1.054  0.170E+00  0.170E+00
  -1.044  0.171E+00  0.171E+00
  -1.034  0.172E+00  0.172E+00
  -1.024  0.173E+00  0.173E+00
  -1.014  0.174E+00  0.174E+00
  -1.004  0.176E+00  0.175E+00
  -0.994  0.177E+00  0.177E+00
  -0.984  0.178E+00  0.178E+00
  -0.974  0.179E+00  0.179E+00
  -0.964  0.180E+00  0.179E+00
  -0.954  0.180E+00  0.180E+00
  -0.944  0.181E+00  0.181E+00
  -0.934  0.181E+00  0.181E+00
  -0.924  0.182E+00  0.181E+00
  -0.914  0.182E+00  0.181E+00
  -0.904  0.182E+00  0.181E+00
  -0.894  0.181E+00  0.181E+00
  -0.884  0.181E+00  0.181E+00
  -0.874  0.181E+00  0.181E+00
  -0.864  0.180E+00  0.180E+00
  -0.854  0.180E+00  0.180E+00
  -0.844  0.180E+00  0.179E+00
  -0.834  0.179E+00  0.179E+00
  -0.824  0.179E+00  0.179E+00
  -0.814  0.179E+00  0.178E+00
  -0.804  0.178E+00  0.178E+00
  -0.794  0.178E+00  0.178E+00
  -0.784  0.179E+00  0.178E+00
  -0.774  0.179E+00  0.179E+00
  -0.764  0.180E+00  0.179E+00
  -0.754  0.180E+00  0.180E+00
  -0.744  0.181E+00  0.181E+00
  -0.734  0.182E+00  0.182E+00
  -0.724  0.183E+00  0.183E+00
  -0.714  0.185E+00  0.184E+00
  -0.704  0.186E+00  0.186E+00
  -0.694  0.187E+00  0.187E+00
  -0.684  0.189E+00  0.188E+00
  -0.674  0.190E+00  0.190E+00
  -0.664  0.191E+00  0.191E+00
  -0.654  0.192E+00  0.192E+00
  -0.644  0.193E+00  0.193E+00
  -0.634  0.194E+00  0.193E+00
  -0.624  0.194E+00  0.194E+00
  -0.614  0.195E+00  0.194E+00
  -0.604  0.195E+00  0.195E+00
  -0.594  0.195E+00  0.195E+00
  -0.584  0.195E+00  0.195E+00
  -0.574  0.195E+00  0.194E+00
  -0.564  0.194E+00  0.194E+00
  -0.554  0.194E+00  0.194E+00
  -0.544  0.194E+00  0.193E+00
  -0.534  0.193E+00  0.193E+00
  -0.524  0.193E+00  0.192E+00
  -0.514  0.192E+00  0.192E+00
  -0.504  0.192E+00  0.192E+00
  -0.494  0.192E+00  0.191E+00
  -0.484  0.192E+00  0.191E+00
  -0.474  0.191E+00  0.191E+00
  -0.464  0.191E+00  0.191E+00
  -0.454  0.191E+00  0.191E+00
  -0.444  0.192E+00  0.191E+00
  -0.434  0.192E+00  0.192E+00
  -0.424  0.192E+00  0.192E+00
  -0.414  0.193E+00  0.193E+00
  -0.404  0.193E+00  0.193E+00
  -0.394  0.194E+00  0.194E+00
  -0.384  0.195E+00  0.195E+00
  -0.374  0.196E+00  0.196E+00
  -0.364  0.197E+00  0.197E+00
  -0.354  0.199E+00  0.198E+00
  -0.344  0.200E+00  0.199E+00
  -0.334  0.201E+00  0.201E+00
  -0.324  0.202E+00  0.202E+00
  -0.314  0.204E+00  0.203E+00
  -0.304  0.205E+00  0.205E+00
  -0.294  0.206E+00  0.206E+00
  -0.284  0.207E+00  0.207E+00
  -0.274  0.208E+00  0.208E+00
  -0.264  0.209E+00  0.209E+00
  -0.254  0.209E+00  0.209E+00
  -0.244  0.210E+00  0.209E+00
  -0.234  0.210E+00  0.210E+00
  -0.224  0.210E+00  0.209E+00
  -0.214  0.209E+00  0.209E+00
  -0.204  0.209E+00  0.209E+00
  -0.194  0.208E+00  0.208E+00
  -0.184  0.208E+00  0.207E+00
  -0.174  0.207E+00  0.206E+00
  -0.164  0.206E+00  0.206E+00
  -0.154  0.205E+00  0.205E+00
  -0.144  0.204E+00  0.204E+00
  -0.134  0.204E+00  0.203E+00
  -0.124  0.203E+00  0.203E+00
  -0.114  0.203E+00  0.202E+00
  -0.104  0.202E+00  0.202E+00
  -0.094  0.202E+00  0.202E+00
  -0.084  0.202E+00  0.202E+00
  -0.074  0.203E+00  0.202E+00
  -0.064  0.203E+00  0.203E+00
  -0.054  0.204E+00  0.204E+00
  -0.044  0.205E+00  0.205E+00
  -0.034  0.206E+00  0.206E+00
  -0.024  0.207E+00  0.207E+00
  -0.014  0.209E+00  0.208E+00
  -0.004  0.210E+00  0.210E+00
   0.006  0.212E+00  0.211E+00
   0.016  0.213E+00  0.213E+00
   0.026  0.215E+00  0.214E+00
   0.036  0.216E+00  0.216E+00
   0.046  0.217E+00  0.217E+00
   0.056  0.219E+00  0.218E+00
   0.066  0.220E+00  0.219E+00
   0.076  0.221E+00  0.220E+00
   0.086  0.221E+00  0.221E+00
   0.096  0.222E+00  0.222E+00
   0.106  0.223E+00  0.222E+00
   0.116  0.223E+00  0.223E+00
   0.126  0.223E+00  0.223E+00
   0.136  0.223E+00  0.223E+00
   0.146  0.223E+00  0.223E+00
   0.156  0.223E+00  0.222E+00
   0.166  0.222E+00  0.222E+00
   0.176  0.222E+00  0.221E+00
   0.186  0.221E+00  0.221E+00
   0.196  0.220E+00  0.220E+00
   0.206  0.219E+00  0.219E+00
   0.216  0.219E+00  0.218E+00
   0.226  0.218E+00  0.217E+00
   0.236  0.217E+00  0.216E+00
   0.246  0.216E+00  0.216E+00
   0.256  0.216E+00  0.215E+00
   0.266  0.215E+00  0.215E+00
   0.276  0.215E+00  0.214E+00
   0.286  0.215E+00  0.214E+00
   0.296  0.215E+00  0.214E+00
   0.306  0.215E+00  0.215E+00
   0.316  0.216E+00  0.215E+00
   0.326  0.216E+00  0.216E+00
   0.336  0.217E+00  0.217E+00
   0.346  0.218E+00  0.218E+00
   0.356  0.220E+00  0.219E+00
   0.366  0.221E+00  0.221E+00
   0.376  0.223E+00  0.222E+00
   0.386  0.224E+00  0.224E+00
   0.396  0.226E+00  0.225E+00
   0.406  0.227E+00  0.227E+00
   0.416  0.229E+00  0.228E+00
   0.426  0.230E+00  0.229E+00
   0.436  0.231E+00  0.231E+00
   0.446  0.232E+00  0.232E+00
   0.456  0.233E+00  0.233E+00
   0.466  0.234E+00  0.233E+00
   0.476  0.234E+00  0.234E+00
   0.486  0.235E+00  0.234E+00
   0.496  0.235E+00  0.235E+00
   0.506  0.236E+00  0.235E+00
   0.516  0.236E+00  0.235E+00
   0.526  0.236E+00  0.235E+00
   0.536  0.236E+00  0.235E+00
   0.546  0.236E+00  0.235E+00
   0.556  0.236E+00  0.235E+00
   0.566  0.235E+00  0.235E+00
   0.576  0.235E+00  0.235E+00
   0.586  0.235E+00  0.234E+00
   0.596  0.234E+00  0.234E+00
   0.606  0.234E+00  0.233E+00
   0.616  0.233E+00  0.233E+00
   0.626  0.233E+00  0.232E+00
   0.636  0.232E+00  0.231E+00
   0.646  0.231E+00  0.231E+00
   0.656  0.231E+00  0.230E+00
   0.666  0.230E+00  0.229E+00
   0.676  0.229E+00  0.229E+00
   0.686  0.228E+00  0.228E+00
   0.696  0.228E+00  0.227E+00
   0.706  0.228E+00  0.227E+00
   0.716  0.227E+00  0.227E+00
   0.726  0.227E+00  0.227E+00
   0.736  0.228E+00  0.227E+00
   0.746  0.228E+00  0.228E+00
   0.756  0.229E+00  0.228E+00
   0.766  0.230E+00  0.229E+00
   0.776  0.231E+00  0.231E+00
   0.786  0.233E+00  0.232E+00
   0.796  0.235E+00  0.234E+00
   0.806  0.237E+00  0.236E+00
   0.816  0.239E+00  0.238E+00
   0.826  0.241E+00  0.240E+00
   0.836  0.243E+00  0.242E+00
   0.846  0.245E+00  0.244E+00
   0.856  0.247E+00  0.246E+00
   0.866  0.248E+00  0.248E+00
   0.876  0.250E+00  0.249E+00
   0.886  0.251E+00  0.251E+00
   0.896  0.252E+00  0.252E+00
   0.906  0.253E+00  0.252E+00
   0.916  0.254E+00  0.253E+00
   0.926  0.254E+00  0.253E+00
   0.936  0.253E+00  0.253E+00
   0.946  0.253E+00  0.252E+00
   0.956  0.252E+00  0.251E+00
   0.966  0.251E+00  0.251E+00
   0.976  0.250E+00  0.249E+00
   0.986  0.249E+00  0.248E+00
   0.996  0.248E+00  0.247E+00
   1.006  0.246E+00  0.246E+00
   1.016  0.245E+00  0.244E+00
   1.026  0.244E+00  0.243E+00
   1.036  0.243E+00  0.242E+00
   1.046  0.242E+00  0.241E+00
   1.056  0.241E+00  0.241E+00
   1.066  0.241E+00  0.240E+00
   1.076  0.240E+00  0.240E+00
   1.086  0.240E+00  0.240E+00
   1.096  0.240E+00  0.240E+00
   1.106  0.240E+00  0.240E+00
   1.116  0.241E+00  0.240E+00
   1.126  0.241E+00  0.240E+00
   1.136  0.242E+00  0.241E+00
   1.146  0.242E+00  0.242E+00
   1.156  0.243E+00  0.242E+00
   1.166  0.244E+00  0.243E+00
   1.176  0.245E+00  0.244E+00
   1.186  0.246E+00  0.245E+00
   1.196  0.247E+00  0.246E+00
   1.206  0.248E+00  0.247E+00
   1.216  0.249E+00  0.248E+00
   1.226  0.250E+00  0.249E+00
   1.236  0.252E+00  0.251E+00
   1.246  0.253E+00  0.252E+00
   1.256  0.254E+00  0.254E+00
   1.266  0.256E+00  0.255E+00
   1.276  0.257E+00  0.257E+00
   1.286  0.259E+00  0.258E+00
   1.296  0.260E+00  0.259E+00
   1.306  0.262E+00  0.261E+00
   1.316  0.263E+00  0.262E+00
   1.326  0.264E+00  0.263E+00
   1.336  0.265E+00  0.264E+00
   1.346  0.265E+00  0.264E+00
   1.356  0.266E+00  0.265E+00
   1.366  0.266E+00  0.265E+00
   1.376  0.266E+00  0.265E+00
   1.386  0.266E+00  0.265E+00
   1.396  0.266E+00  0.265E+00
   1.406  0.265E+00  0.264E+00
   1.416  0.264E+00  0.264E+00
   1.426  0.264E+00  0.263E+00
   1.436  0.263E+00  0.262E+00
   1.446  0.262E+00  0.261E+00
   1.456  0.261E+00  0.260E+00
   1.466  0.259E+00  0.259E+00
   1.476  0.258E+00  0.257E+00
   1.486  0.257E+00  0.256E+00
   1.496  0.256E+00  0.255E+00
   1.506  0.255E+00  0.255E+00
   1.516  0.255E+00  0.254E+00
   1.526  0.254E+00  0.253E+00
   1.536  0.253E+00  0.253E+00
   1.546  0.253E+00  0.252E+00
   1.556  0.253E+00  0.252E+00
   1.566  0.253E+00  0.252E+00
   1.576  0.253E+00  0.253E+00
   1.586  0.254E+00  0.253E+00
   1.596  0.254E+00  0.254E+00
   1.606  0.255E+00  0.254E+00
   1.616  0.256E+00  0.255E+00
   1.626  0.257E+00  0.256E+00
   1.636  0.258E+00  0.258E+00
   1.646  0.260E+00  0.259E+00
   1.656  0.261E+00  0.260E+00
   1.666  0.263E+00  0.262E+00
   1.676  0.264E+00  0.263E+00
   1.686  0.265E+00  0.264E+00
   1.696  0.267E+00  0.266E+00
   1.706  0.268E+00  0.267E+00
   1.716  0.270E+00  0.269E+00
   1.726  0.271E+00  0.270E+00
   1.736  0.272E+00  0.271E+00
   1.746  0.273E+00  0.272E+00
   1.756  0.275E+00  0.274E+00
   1.766  0.276E+00  0.275E+00
   1.776  0.277E+00  0.276E+00
   1.786  0.277E+00  0.276E+00
   1.796  0.278E+00  0.277E+00
   1.806  0.279E+00  0.278E+00
   1.816  0.279E+00  0.278E+00
   1.826  0.280E+00  0.279E+00
   1.836  0.280E+00  0.279E+00
   1.846  0.280E+00  0.279E+00
   1.856  0.281E+00  0.279E+00
   1.866  0.280E+00  0.279E+00
   1.876  0.280E+00  0.279E+00
   1.886  0.280E+00  0.279E+00
   1.896  0.279E+00  0.278E+00
   1.906  0.279E+00  0.277E+00
   1.916  0.278E+00  0.277E+00
   1.926  0.277E+00  0.275E+00
   1.936  0.275E+00  0.274E+00
   1.946  0.274E+00  0.273E+00
   1.956  0.272E+00  0.271E+00
   1.966  0.271E+00  0.270E+00
   1.976  0.269E+00  0.268E+00
   1.986  0.268E+00  0.267E+00
   1.996  0.266E+00  0.265E+00
   2.006  0.265E+00  0.264E+00
   2.016  0.264E+00  0.263E+00
   2.026  0.263E+00  0.262E+00
   2.036  0.262E+00  0.261E+00
   2.046  0.262E+00  0.261E+00
   2.056  0.262E+00  0.261E+00
   2.066  0.263E+00  0.261E+00
   2.076  0.264E+00  0.262E+00
   2.086  0.265E+00  0.264E+00
   2.096  0.267E+00  0.266E+00
   2.106  0.269E+00  0.268E+00
   2.116  0.271E+00  0.270E+00
   2.126  0.274E+00  0.273E+00
   2.136  0.277E+00  0.275E+00
   2.146  0.279E+00  0.278E+00
   2.156  0.282E+00  0.281E+00
   2.166  0.285E+00  0.283E+00
   2.176  0.287E+00  0.286E+00
   2.186  0.289E+00  0.288E+00
   2.196  0.291E+00  0.290E+00
   2.206  0.293E+00  0.291E+00
   2.216  0.294E+00  0.293E+00
   2.226  0.295E+00  0.293E+00
   2.236  0.295E+00  0.294E+00
   2.246  0.295E+00  0.294E+00
   2.256  0.295E+00  0.294E+00
   2.266  0.295E+00  0.294E+00
   2.276  0.294E+00  0.293E+00
   2.286  0.294E+00  0.292E+00
   2.296  0.293E+00  0.292E+00
   2.306  0.292E+00  0.291E+00
   2.316  0.291E+00  0.290E+00
   2.326  0.291E+00  0.289E+00
   2.336  0.290E+00  0.289E+00
   2.346  0.289E+00  0.288E+00
   2.356  0.289E+00  0.287E+00
   2.366  0.288E+00  0.287E+00
   2.376  0.287E+00  0.286E+00
   2.386  0.287E+00  0.286E+00
   2.396  0.287E+00  0.285E+00
   2.406  0.286E+00  0.285E+00
   2.416  0.286E+00  0.285E+00
   2.426  0.286E+00  0.284E+00
   2.436  0.285E+00  0.284E+00
   2.446  0.285E+00  0.284E+00
   2.456  0.285E+00  0.284E+00
   2.466  0.285E+00  0.283E+00
   2.476  0.284E+00  0.283E+00
   2.486  0.284E+00  0.283E+00
   2.496  0.284E+00  0.282E+00
   2.506  0.284E+00  0.282E+00
   2.516  0.283E+00  0.282E+00
   2.526  0.283E+00  0.282E+00
   2.536  0.283E+00  0.281E+00
   2.546  0.283E+00  0.281E+00
   2.556  0.283E+00  0.281E+00
   2.566  0.283E+00  0.281E+00
   2.576  0.283E+00  0.281E+00
   2.586  0.283E+00  0.282E+00
   2.596  0.284E+00  0.282E+00
   2.606  0.285E+00  0.283E+00
   2.616  0.286E+00  0.284E+00
   2.626  0.287E+00  0.285E+00
   2.636  0.288E+00  0.287E+00
   2.646  0.290E+00  0.289E+00
   2.656  0.292E+00  0.290E+00
   2.666  0.294E+00  0.292E+00
   2.676  0.296E+00  0.295E+00
   2.686  0.298E+00  0.297E+00
   2.696  0.301E+00  0.299E+00
   2.706  0.303E+00  0.301E+00
   2.716  0.305E+00  0.303E+00
   2.726  0.307E+00  0.305E+00
   2.736  0.308E+00  0.307E+00
   2.746  0.310E+00  0.308E+00
   2.756  0.311E+00  0.310E+00
   2.766  0.312E+00  0.311E+00
   2.776  0.313E+00  0.311E+00
   2.786  0.313E+00  0.312E+00
   2.796  0.313E+00  0.312E+00
   2.806  0.313E+00  0.311E+00
   2.816  0.313E+00  0.311E+00
   2.826  0.312E+00  0.310E+00
   2.836  0.311E+00  0.309E+00
   2.846  0.310E+00  0.308E+00
   2.856  0.309E+00  0.307E+00
   2.866  0.307E+00  0.305E+00
   2.876  0.306E+00  0.304E+00
   2.886  0.304E+00  0.302E+00
   2.896  0.303E+00  0.301E+00
   2.906  0.301E+00  0.299E+00
   2.916  0.300E+00  0.298E+00
   2.926  0.299E+00  0.297E+00
   2.936  0.298E+00  0.296E+00
   2.946  0.297E+00  0.295E+00
   2.956  0.296E+00  0.294E+00
   2.966  0.295E+00  0.294E+00
   2.976  0.295E+00  0.293E+00
   2.986  0.295E+00  0.293E+00
   2.996  0.295E+00  0.293E+00
   3.006  0.295E+00  0.293E+00
   3.016  0.295E+00  0.294E+00
   3.026  0.296E+00  0.294E+00
   3.036  0.296E+00  0.294E+00
   3.046  0.297E+00  0.295E+00
   3.056  0.298E+00  0.296E+00
   3.066  0.298E+00  0.296E+00
   3.076  0.299E+00  0.297E+00
   3.086  0.300E+00  0.298E+00
   3.096  0.301E+00  0.299E+00
   3.106  0.302E+00  0.300E+00
   3.116  0.303E+00  0.301E+00
   3.126  0.304E+00  0.302E+00
   3.136  0.305E+00  0.303E+00
   3.146  0.306E+00  0.305E+00
   3.156  0.308E+00  0.306E+00
   3.166  0.310E+00  0.308E+00
   3.176  0.312E+00  0.310E+00
   3.186  0.314E+00  0.312E+00
   3.196  0.316E+00  0.314E+00
   3.206  0.318E+00  0.316E+00
   3.216  0.320E+00  0.318E+00
   3.226  0.322E+00  0.320E+00
   3.236  0.324E+00  0.322E+00
   3.246  0.326E+00  0.324E+00
   3.256  0.328E+00  0.326E+00
   3.266  0.330E+00  0.328E+00
   3.276  0.331E+00  0.329E+00
   3.286  0.332E+00  0.330E+00
   3.296  0.333E+00  0.331E+00
   3.306  0.333E+00  0.331E+00
   3.316  0.333E+00  0.331E+00
   3.326  0.333E+00  0.331E+00
   3.336  0.332E+00  0.330E+00
   3.346  0.331E+00  0.329E+00
   3.356  0.330E+00  0.328E+00
   3.366  0.328E+00  0.326E+00
   3.376  0.326E+00  0.324E+00
   3.386  0.324E+00  0.322E+00
   3.396  0.322E+00  0.320E+00
   3.406  0.320E+00  0.318E+00
   3.416  0.317E+00  0.316E+00
   3.426  0.315E+00  0.313E+00
   3.436  0.313E+00  0.311E+00
   3.446  0.311E+00  0.310E+00
   3.456  0.309E+00  0.308E+00
   3.466  0.308E+00  0.306E+00
   3.476  0.306E+00  0.305E+00
   3.486  0.305E+00  0.304E+00
   3.496  0.304E+00  0.303E+00
   3.506  0.303E+00  0.302E+00
   3.516  0.303E+00  0.302E+00
   3.526  0.302E+00  0.302E+00
   3.536  0.302E+00  0.302E+00
   3.546  0.302E+00  0.302E+00
   3.556  0.303E+00  0.303E+00
   3.566  0.304E+00  0.304E+00
   3.576  0.304E+00  0.305E+00
   3.586  0.306E+00  0.306E+00
   3.596  0.307E+00  0.307E+00
   3.606  0.308E+00  0.309E+00
   3.616  0.310E+00  0.311E+00
   3.626  0.312E+00  0.313E+00
   3.636  0.314E+00  0.315E+00
   3.646  0.316E+00  0.317E+00
   3.656  0.318E+00  0.319E+00
   3.666  0.320E+00  0.322E+00
   3.676  0.322E+00  0.324E+00
   3.686  0.324E+00  0.326E+00
   3.696  0.325E+00  0.327E+00
   3.706  0.327E+00  0.329E+00
   3.716  0.328E+00  0.330E+00
   3.726  0.329E+00  0.332E+00
   3.736  0.330E+00  0.333E+00
   3.746  0.331E+00  0.334E+00
   3.756  0.332E+00  0.334E+00
   3.766  0.332E+00  0.335E+00
   3.776  0.333E+00  0.336E+00
   3.786  0.333E+00  0.336E+00
   3.796  0.334E+00  0.337E+00
   3.806  0.334E+00  0.337E+00
   3.816  0.334E+00  0.337E+00
   3.826  0.335E+00  0.338E+00
   3.836  0.335E+00  0.338E+00
   3.846  0.336E+00  0.339E+00
   3.856  0.336E+00  0.339E+00
   3.866  0.336E+00  0.340E+00
   3.876  0.337E+00  0.340E+00
   3.886  0.337E+00  0.341E+00
   3.896  0.337E+00  0.341E+00
   3.906  0.337E+00  0.341E+00
   3.916  0.337E+00  0.341E+00
   3.926  0.337E+00  0.341E+00
   3.936  0.337E+00  0.340E+00
   3.946  0.336E+00  0.340E+00
   3.956  0.335E+00  0.339E+00
   3.966  0.334E+00  0.338E+00
   3.976  0.334E+00  0.337E+00
   3.986  0.332E+00  0.336E+00
   3.996  0.331E+00  0.335E+00
   4.006  0.330E+00  0.334E+00
   4.016  0.329E+00  0.333E+00
   4.026  0.328E+00  0.332E+00
   4.036  0.327E+00  0.331E+00
   4.046  0.326E+00  0.330E+00
   4.056  0.325E+00  0.329E+00
   4.066  0.324E+00  0.328E+00
   4.076  0.323E+00  0.327E+00
   4.086  0.322E+00  0.327E+00
   4.096  0.322E+00  0.326E+00
   4.106  0.321E+00  0.326E+00
   4.116  0.321E+00  0.325E+00
   4.126  0.321E+00  0.325E+00
   4.136  0.321E+00  0.325E+00
   4.146  0.321E+00  0.325E+00
   4.156  0.322E+00  0.326E+00
   4.166  0.323E+00  0.326E+00
   4.176  0.324E+00  0.327E+00
   4.186  0.325E+00  0.328E+00
   4.196  0.327E+00  0.330E+00
   4.206  0.329E+00  0.332E+00
   4.216  0.331E+00  0.334E+00
   4.226  0.333E+00  0.336E+00
   4.236  0.336E+00  0.338E+00
   4.246  0.338E+00  0.341E+00
   4.256  0.341E+00  0.344E+00
   4.266  0.343E+00  0.346E+00
   4.276  0.346E+00  0.349E+00
   4.286  0.349E+00  0.352E+00
   4.296  0.351E+00  0.354E+00
   4.306  0.353E+00  0.357E+00
   4.316  0.356E+00  0.359E+00
   4.326  0.358E+00  0.361E+00
   4.336  0.359E+00  0.363E+00
   4.346  0.361E+00  0.365E+00
   4.356  0.362E+00  0.366E+00
   4.366  0.363E+00  0.367E+00
   4.376  0.364E+00  0.368E+00
   4.386  0.364E+00  0.368E+00
   4.396  0.364E+00  0.368E+00
   4.406  0.364E+00  0.368E+00
   4.416  0.363E+00  0.367E+00
   4.426  0.363E+00  0.366E+00
   4.436  0.362E+00  0.364E+00
   4.446  0.360E+00  0.363E+00
   4.456  0.359E+00  0.361E+00
   4.466  0.357E+00  0.359E+00
   4.476  0.355E+00  0.357E+00
   4.486  0.354E+00  0.355E+00
   4.496  0.352E+00  0.353E+00
   4.506  0.350E+00  0.351E+00
   4.516  0.348E+00  0.350E+00
   4.526  0.347E+00  0.348E+00
   4.536  0.345E+00  0.347E+00
   4.546  0.344E+00  0.346E+00
   4.556  0.343E+00  0.345E+00
   4.566  0.342E+00  0.344E+00
   4.576  0.341E+00  0.343E+00
   4.586  0.340E+00  0.343E+00
   4.596  0.340E+00  0.343E+00
   4.606  0.340E+00  0.343E+00
   4.616  0.340E+00  0.343E+00
   4.626  0.340E+00  0.344E+00
   4.636  0.340E+00  0.344E+00
   4.646  0.340E+00  0.344E+00
   4.656  0.340E+00  0.345E+00
   4.666  0.341E+00  0.346E+00
   4.676  0.342E+00  0.346E+00
   4.686  0.343E+00  0.347E+00
   4.696  0.344E+00  0.348E+00
   4.706  0.345E+00  0.349E+00
   4.716  0.346E+00  0.350E+00
   4.726  0.348E+00  0.351E+00
   4.736  0.350E+00  0.353E+00
   4.746  0.351E+00  0.354E+00
   4.756  0.354E+00  0.356E+00
   4.766  0.356E+00  0.358E+00
   4.776  0.358E+00  0.360E+00
   4.786  0.361E+00  0.362E+00
   4.796  0.364E+00  0.365E+00
   4.806  0.367E+00  0.367E+00
   4.816  0.370E+00  0.370E+00
   4.826  0.373E+00  0.373E+00
   4.836  0.376E+00  0.376E+00
   4.846  0.379E+00  0.379E+00
   4.856  0.382E+00  0.382E+00
   4.866  0.385E+00  0.385E+00
   4.876  0.387E+00  0.387E+00
   4.886  0.390E+00  0.390E+00
   4.896  0.392E+00  0.393E+00
   4.906  0.394E+00  0.395E+00
   4.916  0.396E+00  0.397E+00
   4.926  0.397E+00  0.398E+00
   4.936  0.398E+00  0.399E+00
   4.946  0.398E+00  0.400E+00
   4.956  0.398E+00  0.400E+00
   4.966  0.398E+00  0.399E+00
   4.976  0.397E+00  0.399E+00
   4.986  0.395E+00  0.397E+00
   4.996  0.394E+00  0.396E+00
   5.006  0.392E+00  0.394E+00
   5.016  0.390E+00  0.392E+00
   5.026  0.388E+00  0.389E+00
   5.036  0.385E+00  0.387E+00
   5.046  0.383E+00  0.384E+00
   5.056  0.381E+00  0.382E+00
   5.066  0.379E+00  0.380E+00
   5.076  0.377E+00  0.377E+00
   5.086  0.375E+00  0.375E+00
   5.096  0.374E+00  0.373E+00
   5.106  0.372E+00  0.371E+00
   5.116  0.371E+00  0.370E+00
   5.126  0.370E+00  0.368E+00
   5.136  0.369E+00  0.367E+00
   5.146  0.369E+00  0.367E+00
   5.156  0.368E+00  0.366E+00
   5.166  0.368E+00  0.366E+00
   5.176  0.368E+00  0.366E+00
   5.186  0.369E+00  0.366E+00
   5.196  0.369E+00  0.367E+00
   5.206  0.370E+00  0.368E+00
   5.216  0.370E+00  0.369E+00
   5.226  0.371E+00  0.370E+00
   5.236  0.372E+00  0.371E+00
   5.246  0.373E+00  0.372E+00
   5.256  0.374E+00  0.374E+00
   5.266  0.375E+00  0.375E+00
   5.276  0.377E+00  0.377E+00
   5.286  0.378E+00  0.378E+00
   5.296  0.379E+00  0.380E+00
   5.306  0.380E+00  0.381E+00
   5.316  0.381E+00  0.382E+00
   5.326  0.382E+00  0.383E+00
   5.336  0.382E+00  0.384E+00
   5.346  0.383E+00  0.384E+00
   5.356  0.383E+00  0.385E+00
   5.366  0.383E+00  0.385E+00
   5.376  0.383E+00  0.384E+00
   5.386  0.383E+00  0.384E+00
   5.396  0.383E+00  0.383E+00
   5.406  0.382E+00  0.382E+00
   5.416  0.381E+00  0.380E+00
   5.426  0.380E+00  0.379E+00
   5.436  0.379E+00  0.377E+00
   5.446  0.377E+00  0.375E+00
   5.456  0.376E+00  0.373E+00
   5.466  0.374E+00  0.371E+00
   5.476  0.373E+00  0.369E+00
   5.486  0.372E+00  0.367E+00
   5.496  0.370E+00  0.366E+00
   5.506  0.369E+00  0.365E+00
   5.516  0.369E+00  0.364E+00
   5.526  0.368E+00  0.363E+00
   5.536  0.368E+00  0.362E+00
   5.546  0.368E+00  0.362E+00
   5.556  0.368E+00  0.363E+00
   5.566  0.369E+00  0.363E+00
   5.576  0.370E+00  0.364E+00
   5.586  0.371E+00  0.365E+00
   5.596  0.371E+00  0.366E+00
   5.606  0.372E+00  0.367E+00
   5.616  0.373E+00  0.369E+00
   5.626  0.374E+00  0.369E+00
   5.636  0.375E+00  0.370E+00
   5.646  0.375E+00  0.371E+00
   5.656  0.375E+00  0.371E+00
   5.666  0.374E+00  0.370E+00
   5.676  0.374E+00  0.370E+00
   5.686  0.372E+00  0.369E+00
   5.696  0.371E+00  0.367E+00
   5.706  0.369E+00  0.365E+00
   5.716  0.367E+00  0.363E+00
   5.726  0.364E+00  0.361E+00
   5.736  0.362E+00  0.358E+00
   5.746  0.359E+00  0.355E+00
   5.756  0.356E+00  0.352E+00
   5.766  0.354E+00  0.349E+00
   5.776  0.351E+00  0.347E+00
   5.786  0.349E+00  0.344E+00
   5.796  0.347E+00  0.342E+00
   5.806  0.345E+00  0.340E+00
   5.816  0.343E+00  0.338E+00
   5.826  0.342E+00  0.336E+00
   5.836  0.341E+00  0.335E+00
   5.846  0.340E+00  0.334E+00
   5.856  0.339E+00  0.333E+00
   5.866  0.339E+00  0.333E+00
   5.876  0.339E+00  0.333E+00
   5.886  0.340E+00  0.334E+00
   5.896  0.340E+00  0.334E+00
   5.906  0.341E+00  0.335E+00
   5.916  0.342E+00  0.336E+00
   5.926  0.344E+00  0.338E+00
   5.936  0.345E+00  0.339E+00
   5.946  0.346E+00  0.341E+00
   5.956  0.348E+00  0.342E+00
   5.966  0.349E+00  0.344E+00
   5.976  0.351E+00  0.345E+00
   5.986  0.352E+00  0.347E+00
   5.996  0.353E+00  0.348E+00
   6.006  0.355E+00  0.349E+00
   6.016  0.356E+00  0.350E+00
   6.026  0.357E+00  0.350E+00
   6.036  0.358E+00  0.351E+00
   6.046  0.358E+00  0.351E+00
   6.056  0.359E+00  0.351E+00
   6.066  0.359E+00  0.350E+00
   6.076  0.358E+00  0.350E+00
   6.086  0.358E+00  0.349E+00
   6.096  0.357E+00  0.347E+00
   6.106  0.356E+00  0.346E+00
   6.116  0.355E+00  0.344E+00
   6.126  0.354E+00  0.342E+00
   6.136  0.353E+00  0.340E+00
   6.146  0.351E+00  0.339E+00
   6.156  0.350E+00  0.337E+00
   6.166  0.348E+00  0.335E+00
   6.176  0.347E+00  0.334E+00
   6.186  0.346E+00  0.333E+00
   6.196  0.346E+00  0.332E+00
   6.206  0.345E+00  0.332E+00
   6.216  0.345E+00  0.332E+00
   6.226  0.346E+00  0.333E+00
   6.236  0.346E+00  0.334E+00
   6.246  0.347E+00  0.335E+00
   6.256  0.349E+00  0.337E+00
   6.266  0.350E+00  0.339E+00
   6.276  0.352E+00  0.341E+00
   6.286  0.354E+00  0.344E+00
   6.296  0.356E+00  0.346E+00
   6.306  0.357E+00  0.348E+00
   6.316  0.359E+00  0.350E+00
   6.326  0.360E+00  0.351E+00
   6.336  0.361E+00  0.352E+00
   6.346  0.361E+00  0.353E+00
   6.356  0.361E+00  0.353E+00
   6.366  0.361E+00  0.353E+00
   6.376  0.360E+00  0.352E+00
   6.386  0.358E+00  0.350E+00
   6.396  0.357E+00  0.348E+00
   6.406  0.355E+00  0.346E+00
   6.416  0.353E+00  0.343E+00
   6.426  0.350E+00  0.340E+00
   6.436  0.348E+00  0.337E+00
   6.446  0.346E+00  0.334E+00
   6.456  0.344E+00  0.331E+00
   6.466  0.343E+00  0.329E+00
   6.476  0.342E+00  0.326E+00
   6.486  0.341E+00  0.324E+00
   6.496  0.341E+00  0.323E+00
   6.506  0.342E+00  0.322E+00
   6.516  0.343E+00  0.321E+00
   6.526  0.344E+00  0.322E+00
   6.536  0.346E+00  0.322E+00
   6.546  0.349E+00  0.323E+00
   6.556  0.351E+00  0.325E+00
   6.566  0.355E+00  0.326E+00
   6.576  0.358E+00  0.328E+00
   6.586  0.362E+00  0.331E+00
   6.596  0.365E+00  0.333E+00
   6.606  0.369E+00  0.336E+00
   6.616  0.373E+00  0.339E+00
   6.626  0.376E+00  0.341E+00
   6.636  0.380E+00  0.344E+00
   6.646  0.383E+00  0.346E+00
   6.656  0.385E+00  0.348E+00
   6.666  0.388E+00  0.350E+00
   6.676  0.390E+00  0.351E+00
   6.686  0.392E+00  0.353E+00
   6.696  0.394E+00  0.354E+00
   6.706  0.395E+00  0.355E+00
   6.716  0.396E+00  0.355E+00
   6.726  0.397E+00  0.356E+00
   6.736  0.397E+00  0.356E+00
   6.746  0.398E+00  0.356E+00
   6.756  0.398E+00  0.356E+00
   6.766  0.398E+00  0.356E+00
   6.776  0.397E+00  0.355E+00
   6.786  0.396E+00  0.354E+00
   6.796  0.396E+00  0.353E+00
   6.806  0.394E+00  0.352E+00
   6.816  0.393E+00  0.350E+00
   6.826  0.392E+00  0.349E+00
   6.836  0.390E+00  0.347E+00
   6.846  0.389E+00  0.346E+00
   6.856  0.387E+00  0.344E+00
   6.866  0.386E+00  0.343E+00
   6.876  0.384E+00  0.341E+00
   6.886  0.383E+00  0.340E+00
   6.896  0.382E+00  0.339E+00
   6.906  0.381E+00  0.338E+00
   6.916  0.381E+00  0.338E+00
   6.926  0.381E+00  0.337E+00
   6.936  0.381E+00  0.337E+00
   6.946  0.382E+00  0.338E+00
   6.956  0.383E+00  0.338E+00
   6.966  0.384E+00  0.339E+00
   6.976  0.386E+00  0.340E+00
   6.986  0.387E+00  0.340E+00
   6.996  0.389E+00  0.341E+00
   7.006  0.390E+00  0.342E+00
   7.016  0.392E+00  0.342E+00
   7.026  0.393E+00  0.342E+00
   7.036  0.394E+00  0.342E+00
   7.046  0.395E+00  0.342E+00
   7.056  0.396E+00  0.341E+00
   7.066  0.396E+00  0.340E+00
   7.076  0.396E+00  0.339E+00
   7.086  0.396E+00  0.337E+00
   7.096  0.396E+00  0.336E+00
   7.106  0.395E+00  0.334E+00
   7.116  0.395E+00  0.332E+00
   7.126  0.394E+00  0.330E+00
   7.136  0.393E+00  0.328E+00
   7.146  0.392E+00  0.326E+00
   7.156  0.391E+00  0.324E+00
   7.166  0.390E+00  0.323E+00
   7.176  0.389E+00  0.321E+00
   7.186  0.388E+00  0.320E+00
   7.196  0.387E+00  0.319E+00
   7.206  0.386E+00  0.319E+00
   7.216  0.386E+00  0.319E+00
   7.226  0.385E+00  0.318E+00
   7.236  0.385E+00  0.319E+00
   7.246  0.384E+00  0.319E+00
   7.256  0.384E+00  0.319E+00
   7.266  0.384E+00  0.320E+00
   7.276  0.384E+00  0.321E+00
   7.286  0.384E+00  0.321E+00
   7.296  0.384E+00  0.322E+00
   7.306  0.384E+00  0.322E+00
   7.316  0.384E+00  0.323E+00
   7.326  0.384E+00  0.323E+00
   7.336  0.384E+00  0.324E+00
   7.346  0.383E+00  0.324E+00
   7.356  0.383E+00  0.323E+00
   7.366  0.382E+00  0.323E+00
   7.376  0.381E+00  0.322E+00
   7.386  0.380E+00  0.322E+00
   7.396  0.379E+00  0.321E+00
   7.406  0.378E+00  0.320E+00
   7.416  0.377E+00  0.319E+00
   7.426  0.376E+00  0.318E+00
   7.436  0.375E+00  0.316E+00
   7.446  0.374E+00  0.315E+00
   7.456  0.373E+00  0.315E+00
   7.466  0.373E+00  0.314E+00
   7.476  0.372E+00  0.314E+00
   7.486  0.373E+00  0.314E+00
   7.496  0.373E+00  0.314E+00
   7.506  0.374E+00  0.314E+00
   7.516  0.375E+00  0.315E+00
   7.526  0.376E+00  0.317E+00
   7.536  0.377E+00  0.318E+00
   7.546  0.379E+00  0.320E+00
   7.556  0.381E+00  0.322E+00
   7.566  0.383E+00  0.324E+00
   7.576  0.385E+00  0.327E+00
   7.586  0.387E+00  0.329E+00
   7.596  0.389E+00  0.331E+00
   7.606  0.391E+00  0.334E+00
   7.616  0.393E+00  0.336E+00
   7.626  0.395E+00  0.338E+00
   7.636  0.396E+00  0.340E+00
   7.646  0.397E+00  0.342E+00
   7.656  0.398E+00  0.343E+00
   7.666  0.399E+00  0.344E+00
   7.676  0.399E+00  0.345E+00
   7.686  0.399E+00  0.345E+00
   7.696  0.398E+00  0.345E+00
   7.706  0.397E+00  0.345E+00
   7.716  0.396E+00  0.345E+00
   7.726  0.395E+00  0.345E+00
   7.736  0.394E+00  0.344E+00
   7.746  0.392E+00  0.343E+00
   7.756  0.390E+00  0.342E+00
   7.766  0.388E+00  0.341E+00
   7.776  0.387E+00  0.341E+00
   7.786  0.385E+00  0.340E+00
   7.796  0.383E+00  0.339E+00
   7.806  0.381E+00  0.338E+00
   7.816  0.379E+00  0.338E+00
   7.826  0.378E+00  0.337E+00
   7.836  0.376E+00  0.337E+00
   7.846  0.375E+00  0.337E+00
   7.856  0.374E+00  0.337E+00
   7.866  0.374E+00  0.337E+00
   7.876  0.374E+00  0.338E+00
   7.886  0.374E+00  0.338E+00
   7.896  0.374E+00  0.340E+00
   7.906  0.375E+00  0.341E+00
   7.916  0.377E+00  0.342E+00
   7.926  0.378E+00  0.344E+00
   7.936  0.381E+00  0.346E+00
   7.946  0.383E+00  0.348E+00
   7.956  0.386E+00  0.351E+00
   7.966  0.390E+00  0.353E+00
   7.976  0.393E+00  0.356E+00
   7.986  0.397E+00  0.359E+00
   7.996  0.401E+00  0.362E+00
   8.006  0.405E+00  0.365E+00
   8.016  0.410E+00  0.368E+00
   8.026  0.414E+00  0.371E+00
   8.036  0.418E+00  0.374E+00
   8.046  0.423E+00  0.376E+00
   8.056  0.427E+00  0.379E+00
   8.066  0.431E+00  0.381E+00
   8.076  0.434E+00  0.383E+00
   8.086  0.438E+00  0.385E+00
   8.096  0.441E+00  0.386E+00
   8.106  0.443E+00  0.387E+00
   8.116  0.446E+00  0.388E+00
   8.126  0.448E+00  0.389E+00
   8.136  0.449E+00  0.389E+00
   8.146  0.450E+00  0.389E+00
   8.156  0.450E+00  0.389E+00
   8.166  0.450E+00  0.388E+00
   8.176  0.450E+00  0.388E+00
   8.186  0.449E+00  0.387E+00
   8.196  0.447E+00  0.385E+00
   8.206  0.446E+00  0.384E+00
   8.216  0.443E+00  0.383E+00
   8.226  0.441E+00  0.381E+00
   8.236  0.438E+00  0.379E+00
   8.246  0.435E+00  0.378E+00
   8.256  0.432E+00  0.376E+00
   8.266  0.429E+00  0.374E+00
   8.276  0.425E+00  0.373E+00
   8.286  0.422E+00  0.371E+00
   8.296  0.419E+00  0.369E+00
   8.306  0.416E+00  0.368E+00
   8.316  0.413E+00  0.366E+00
   8.326  0.410E+00  0.365E+00
   8.336  0.407E+00  0.364E+00
   8.346  0.405E+00  0.363E+00
   8.356  0.402E+00  0.361E+00
   8.366  0.400E+00  0.360E+00
   8.376  0.398E+00  0.359E+00
   8.386  0.396E+00  0.358E+00
   8.396  0.395E+00  0.358E+00
   8.406  0.393E+00  0.357E+00
   8.416  0.392E+00  0.356E+00
   8.426  0.391E+00  0.356E+00
   8.436  0.390E+00  0.356E+00
   8.446  0.390E+00  0.356E+00
   8.456  0.390E+00  0.356E+00
   8.466  0.390E+00  0.356E+00
   8.476  0.390E+00  0.356E+00
   8.486  0.391E+00  0.356E+00
   8.496  0.391E+00  0.357E+00
   8.506  0.392E+00  0.358E+00
   8.516  0.394E+00  0.359E+00
   8.526  0.395E+00  0.360E+00
   8.536  0.397E+00  0.361E+00
   8.546  0.399E+00  0.362E+00
   8.556  0.401E+00  0.363E+00
   8.566  0.404E+00  0.365E+00
   8.576  0.407E+00  0.366E+00
   8.586  0.410E+00  0.368E+00
   8.596  0.413E+00  0.369E+00
   8.606  0.416E+00  0.371E+00
   8.616  0.420E+00  0.373E+00
   8.626  0.424E+00  0.374E+00
   8.636  0.428E+00  0.376E+00
   8.646  0.432E+00  0.377E+00
   8.656  0.436E+00  0.378E+00
   8.666  0.439E+00  0.380E+00
   8.676  0.443E+00  0.381E+00
   8.686  0.446E+00  0.381E+00
   8.696  0.449E+00  0.382E+00
   8.706  0.451E+00  0.382E+00
   8.716  0.453E+00  0.382E+00
   8.726  0.454E+00  0.382E+00
   8.736  0.455E+00  0.382E+00
   8.746  0.455E+00  0.381E+00
   8.756  0.455E+00  0.380E+00
   8.766  0.454E+00  0.379E+00
   8.776  0.453E+00  0.378E+00
   8.786  0.451E+00  0.376E+00
   8.796  0.449E+00  0.375E+00
   8.806  0.446E+00  0.373E+00
   8.816  0.443E+00  0.372E+00
   8.826  0.440E+00  0.370E+00
   8.836  0.437E+00  0.369E+00
   8.846  0.434E+00  0.368E+00
   8.856  0.431E+00  0.366E+00
   8.866  0.428E+00  0.365E+00
   8.876  0.425E+00  0.365E+00
   8.886  0.422E+00  0.364E+00
   8.896  0.420E+00  0.363E+00
   8.906  0.417E+00  0.363E+00
   8.916  0.415E+00  0.362E+00
   8.926  0.413E+00  0.362E+00
   8.936  0.412E+00  0.362E+00
   8.946  0.410E+00  0.362E+00
   8.956  0.409E+00  0.362E+00
   8.966  0.407E+00  0.362E+00
   8.976  0.406E+00  0.362E+00
   8.986  0.405E+00  0.362E+00
   8.996  0.404E+00  0.362E+00
   9.006  0.403E+00  0.362E+00
   9.016  0.402E+00  0.361E+00
   9.026  0.401E+00  0.361E+00
   9.036  0.400E+00  0.361E+00
   9.046  0.399E+00  0.360E+00
   9.056  0.398E+00  0.360E+00
   9.066  0.398E+00  0.360E+00
   9.076  0.397E+00  0.359E+00
   9.086  0.397E+00  0.359E+00
   9.096  0.396E+00  0.359E+00
   9.106  0.396E+00  0.359E+00
   9.116  0.397E+00  0.359E+00
   9.126  0.397E+00  0.359E+00
   9.136  0.398E+00  0.359E+00
   9.146  0.400E+00  0.360E+00
   9.156  0.401E+00  0.361E+00
   9.166  0.403E+00  0.362E+00
   9.176  0.406E+00  0.363E+00
   9.186  0.409E+00  0.364E+00
   9.196  0.412E+00  0.365E+00
   9.206  0.415E+00  0.366E+00
   9.216  0.419E+00  0.367E+00
   9.226  0.422E+00  0.369E+00
   9.236  0.426E+00  0.370E+00
   9.246  0.430E+00  0.371E+00
   9.256  0.434E+00  0.372E+00
   9.266  0.437E+00  0.374E+00
   9.276  0.441E+00  0.375E+00
   9.286  0.444E+00  0.375E+00
   9.296  0.447E+00  0.376E+00
   9.306  0.449E+00  0.377E+00
   9.316  0.451E+00  0.377E+00
   9.326  0.452E+00  0.378E+00
   9.336  0.453E+00  0.378E+00
   9.346  0.454E+00  0.378E+00
   9.356  0.454E+00  0.378E+00
   9.366  0.453E+00  0.378E+00
   9.376  0.453E+00  0.379E+00
   9.386  0.452E+00  0.379E+00
   9.396  0.451E+00  0.379E+00
   9.406  0.449E+00  0.380E+00
   9.416  0.448E+00  0.380E+00
   9.426  0.447E+00  0.381E+00
   9.436  0.446E+00  0.382E+00
   9.446  0.444E+00  0.383E+00
   9.456  0.443E+00  0.385E+00
   9.466  0.443E+00  0.386E+00
   9.476  0.442E+00  0.387E+00
   9.486  0.442E+00  0.389E+00
   9.496  0.441E+00  0.390E+00
   9.506  0.441E+00  0.392E+00
   9.516  0.441E+00  0.393E+00
   9.526  0.442E+00  0.394E+00
   9.536  0.442E+00  0.396E+00
   9.546  0.442E+00  0.397E+00
   9.556  0.443E+00  0.398E+00
   9.566  0.443E+00  0.398E+00
   9.576  0.444E+00  0.399E+00
   9.586  0.444E+00  0.400E+00
   9.596  0.445E+00  0.400E+00
   9.606  0.445E+00  0.400E+00
   9.616  0.445E+00  0.400E+00
   9.626  0.445E+00  0.400E+00
   9.636  0.444E+00  0.400E+00
   9.646  0.444E+00  0.399E+00
   9.656  0.442E+00  0.398E+00
   9.666  0.441E+00  0.396E+00
   9.676  0.439E+00  0.394E+00
   9.686  0.437E+00  0.392E+00
   9.696  0.434E+00  0.390E+00
   9.706  0.431E+00  0.387E+00
   9.716  0.428E+00  0.384E+00
   9.726  0.425E+00  0.381E+00
   9.736  0.422E+00  0.377E+00
   9.746  0.418E+00  0.373E+00
   9.756  0.415E+00  0.370E+00
   9.766  0.412E+00  0.366E+00
   9.776  0.409E+00  0.363E+00
   9.786  0.406E+00  0.360E+00
   9.796  0.404E+00  0.357E+00
   9.806  0.403E+00  0.355E+00
   9.816  0.402E+00  0.353E+00
   9.826  0.402E+00  0.352E+00
   9.836  0.402E+00  0.351E+00
   9.846  0.404E+00  0.351E+00
   9.856  0.405E+00  0.351E+00
   9.866  0.408E+00  0.352E+00
   9.876  0.411E+00  0.354E+00
   9.886  0.415E+00  0.356E+00
   9.896  0.419E+00  0.359E+00
   9.906  0.424E+00  0.362E+00
   9.916  0.429E+00  0.366E+00
   9.926  0.434E+00  0.370E+00
   9.936  0.440E+00  0.374E+00
   9.946  0.446E+00  0.379E+00
   9.956  0.452E+00  0.384E+00
   9.966  0.458E+00  0.389E+00
   9.976  0.464E+00  0.395E+00
   9.986  0.469E+00  0.400E+00
   9.996  0.475E+00  0.405E+00
  10.006  0.480E+00  0.410E+00
  10.016  0.484E+00  0.414E+00
  10.026  0.488E+00  0.418E+00
  10.036  0.492E+00  0.422E+00
  10.046  0.494E+00  0.425E+00
  10.056  0.496E+00  0.427E+00
  10.066  0.497E+00  0.429E+00
  10.076  0.498E+00  0.430E+00
  10.086  0.498E+00  0.431E+00
  10.096  0.497E+00  0.431E+00
  10.106  0.495E+00  0.430E+00
  10.116  0.492E+00  0.428E+00
  10.126  0.489E+00  0.426E+00
  10.136  0.486E+00  0.424E+00
  10.146  0.482E+00  0.420E+00
  10.156  0.477E+00  0.417E+00
  10.166  0.472E+00  0.413E+00
  10.176  0.467E+00  0.409E+00
  10.186  0.462E+00  0.404E+00
  10.196  0.456E+00  0.399E+00
  10.206  0.451E+00  0.395E+00
  10.216  0.445E+00  0.390E+00
  10.226  0.440E+00  0.386E+00
  10.236  0.435E+00  0.382E+00
  10.246  0.431E+00  0.378E+00
  10.256  0.427E+00  0.375E+00
  10.266  0.423E+00  0.372E+00
  10.276  0.420E+00  0.370E+00
  10.286  0.418E+00  0.368E+00
  10.296  0.416E+00  0.367E+00
  10.306  0.415E+00  0.367E+00
  10.316  0.415E+00  0.367E+00
  10.326  0.415E+00  0.368E+00
  10.336  0.416E+00  0.369E+00
  10.346  0.418E+00  0.371E+00
  10.356  0.419E+00  0.373E+00
  10.366  0.421E+00  0.376E+00
  10.376  0.424E+00  0.379E+00
  10.386  0.427E+00  0.383E+00
  10.396  0.430E+00  0.386E+00
  10.406  0.433E+00  0.390E+00
  10.416  0.436E+00  0.394E+00
  10.426  0.439E+00  0.398E+00
  10.436  0.442E+00  0.402E+00
  10.446  0.445E+00  0.405E+00
  10.456  0.448E+00  0.408E+00
  10.466  0.450E+00  0.412E+00
  10.476  0.453E+00  0.414E+00
  10.486  0.456E+00  0.417E+00
  10.496  0.458E+00  0.419E+00
  10.506  0.460E+00  0.420E+00
  10.516  0.462E+00  0.422E+00
  10.526  0.464E+00  0.423E+00
  10.536  0.466E+00  0.423E+00
  10.546  0.467E+00  0.423E+00
  10.556  0.469E+00  0.423E+00
  10.566  0.470E+00  0.422E+00
  10.576  0.471E+00  0.421E+00
  10.586  0.473E+00  0.420E+00
  10.596  0.474E+00  0.419E+00
  10.606  0.475E+00  0.417E+00
  10.616  0.477E+00  0.416E+00
  10.626  0.478E+00  0.414E+00
  10.636  0.480E+00  0.413E+00
  10.646  0.481E+00  0.412E+00
  10.656  0.482E+00  0.411E+00
  10.666  0.484E+00  0.410E+00
  10.676  0.485E+00  0.409E+00
  10.686  0.486E+00  0.408E+00
  10.696  0.487E+00  0.407E+00
  10.706  0.487E+00  0.406E+00
  10.716  0.487E+00  0.406E+00
  10.726  0.487E+00  0.405E+00
  10.736  0.487E+00  0.405E+00
  10.746  0.485E+00  0.404E+00
  10.756  0.484E+00  0.403E+00
  10.766  0.482E+00  0.402E+00
  10.776  0.479E+00  0.401E+00
  10.786  0.476E+00  0.399E+00
  10.796  0.473E+00  0.398E+00
  10.806  0.469E+00  0.396E+00
  10.816  0.465E+00  0.394E+00
  10.826  0.461E+00  0.393E+00
  10.836  0.457E+00  0.391E+00
  10.846  0.453E+00  0.389E+00
  10.856  0.449E+00  0.387E+00
  10.866  0.445E+00  0.385E+00
  10.876  0.442E+00  0.384E+00
  10.886  0.440E+00  0.383E+00
  10.896  0.438E+00  0.382E+00
  10.906  0.437E+00  0.382E+00
  10.916  0.436E+00  0.382E+00
  10.926  0.436E+00  0.382E+00
  10.936  0.437E+00  0.383E+00
  10.946  0.439E+00  0.384E+00
  10.956  0.441E+00  0.386E+00
  10.966  0.444E+00  0.389E+00
  10.976  0.448E+00  0.391E+00
  10.986  0.451E+00  0.394E+00
  10.996  0.456E+00  0.398E+00
  11.006  0.460E+00  0.402E+00
  11.016  0.465E+00  0.405E+00
  11.026  0.469E+00  0.409E+00
  11.036  0.474E+00  0.413E+00
  11.046  0.478E+00  0.417E+00
  11.056  0.482E+00  0.420E+00
  11.066  0.485E+00  0.424E+00
  11.076  0.488E+00  0.426E+00
  11.086  0.490E+00  0.429E+00
  11.096  0.491E+00  0.430E+00
  11.106  0.492E+00  0.432E+00
  11.116  0.493E+00  0.432E+00
  11.126  0.492E+00  0.432E+00
  11.136  0.491E+00  0.432E+00
  11.146  0.490E+00  0.431E+00
  11.156  0.488E+00  0.429E+00
  11.166  0.485E+00  0.427E+00
  11.176  0.483E+00  0.425E+00
  11.186  0.480E+00  0.422E+00
  11.196  0.477E+00  0.420E+00
  11.206  0.475E+00  0.417E+00
  11.216  0.472E+00  0.415E+00
  11.226  0.470E+00  0.412E+00
  11.236  0.468E+00  0.410E+00
  11.246  0.466E+00  0.408E+00
  11.256  0.465E+00  0.407E+00
  11.266  0.465E+00  0.405E+00
  11.276  0.465E+00  0.405E+00
  11.286  0.465E+00  0.404E+00
  11.296  0.466E+00  0.404E+00
  11.306  0.468E+00  0.405E+00
  11.316  0.470E+00  0.405E+00
  11.326  0.472E+00  0.406E+00
  11.336  0.474E+00  0.408E+00
  11.346  0.476E+00  0.409E+00
  11.356  0.478E+00  0.410E+00
  11.366  0.481E+00  0.411E+00
  11.376  0.482E+00  0.412E+00
  11.386  0.484E+00  0.413E+00
  11.396  0.485E+00  0.414E+00
  11.406  0.485E+00  0.414E+00
  11.416  0.485E+00  0.414E+00
  11.426  0.484E+00  0.414E+00
  11.436  0.483E+00  0.413E+00
  11.446  0.482E+00  0.412E+00
  11.456  0.480E+00  0.411E+00
  11.466  0.478E+00  0.410E+00
  11.476  0.477E+00  0.409E+00
  11.486  0.475E+00  0.408E+00
  11.496  0.473E+00  0.407E+00
  11.506  0.472E+00  0.407E+00
  11.516  0.471E+00  0.407E+00
  11.526  0.471E+00  0.407E+00
  11.536  0.471E+00  0.407E+00
  11.546  0.472E+00  0.408E+00
  11.556  0.473E+00  0.409E+00
  11.566  0.475E+00  0.411E+00
  11.576  0.477E+00  0.412E+00
  11.586  0.480E+00  0.414E+00
  11.596  0.483E+00  0.416E+00
  11.606  0.486E+00  0.418E+00
  11.616  0.489E+00  0.419E+00
  11.626  0.492E+00  0.421E+00
  11.636  0.494E+00  0.422E+00
  11.646  0.496E+00  0.423E+00
  11.656  0.498E+00  0.424E+00
  11.666  0.500E+00  0.425E+00
  11.676  0.501E+00  0.425E+00
  11.686  0.501E+00  0.424E+00
  11.696  0.501E+00  0.424E+00
  11.706  0.500E+00  0.423E+00
  11.716  0.500E+00  0.422E+00
  11.726  0.498E+00  0.421E+00
  11.736  0.497E+00  0.420E+00
  11.746  0.495E+00  0.420E+00
  11.756  0.494E+00  0.419E+00
  11.766  0.492E+00  0.418E+00
  11.776  0.490E+00  0.417E+00
  11.786  0.489E+00  0.417E+00
  11.796  0.488E+00  0.417E+00
  11.806  0.487E+00  0.417E+00
  11.816  0.486E+00  0.417E+00
  11.826  0.485E+00  0.418E+00
  11.836  0.485E+00  0.418E+00
  11.846  0.485E+00  0.419E+00
  11.856  0.485E+00  0.419E+00
  11.866  0.485E+00  0.420E+00
  11.876  0.485E+00  0.420E+00
  11.886  0.486E+00  0.420E+00
  11.896  0.486E+00  0.420E+00
  11.906  0.486E+00  0.419E+00
  11.916  0.487E+00  0.419E+00
  11.926  0.487E+00  0.418E+00
  11.936  0.487E+00  0.417E+00
  11.946  0.487E+00  0.415E+00
  11.956  0.487E+00  0.414E+00
  11.966  0.487E+00  0.412E+00
  11.976  0.487E+00  0.410E+00
  11.986  0.488E+00  0.408E+00
  11.996  0.488E+00  0.406E+00
  12.006  0.488E+00  0.405E+00
  12.016  0.488E+00  0.403E+00
  12.026  0.488E+00  0.402E+00
  12.036  0.488E+00  0.401E+00
  12.046  0.489E+00  0.400E+00
  12.056  0.489E+00  0.400E+00
  12.066  0.489E+00  0.400E+00
  12.076  0.490E+00  0.400E+00
  12.086  0.490E+00  0.400E+00
  12.096  0.490E+00  0.401E+00
  12.106  0.490E+00  0.402E+00
  12.116  0.490E+00  0.403E+00
  12.126  0.490E+00  0.404E+00
  12.136  0.490E+00  0.406E+00
  12.146  0.490E+00  0.407E+00
  12.156  0.490E+00  0.409E+00
  12.166  0.490E+00  0.411E+00
  12.176  0.491E+00  0.413E+00
  12.186  0.491E+00  0.415E+00
  12.196  0.493E+00  0.417E+00
  12.206  0.494E+00  0.419E+00
  12.216  0.496E+00  0.422E+00
  12.226  0.498E+00  0.424E+00
  12.236  0.501E+00  0.427E+00
  12.246  0.504E+00  0.430E+00
  12.256  0.508E+00  0.433E+00
  12.266  0.512E+00  0.436E+00
  12.276  0.515E+00  0.439E+00
  12.286  0.519E+00  0.442E+00
  12.296  0.523E+00  0.445E+00
  12.306  0.527E+00  0.447E+00
  12.316  0.530E+00  0.450E+00
  12.326  0.533E+00  0.451E+00
  12.336  0.535E+00  0.452E+00
  12.346  0.536E+00  0.453E+00
  12.356  0.537E+00  0.453E+00
  12.366  0.537E+00  0.453E+00
  12.376  0.537E+00  0.452E+00
  12.386  0.535E+00  0.451E+00
  12.396  0.533E+00  0.449E+00
  12.406  0.530E+00  0.446E+00
  12.416  0.527E+00  0.444E+00
  12.426  0.523E+00  0.441E+00
  12.436  0.519E+00  0.438E+00
  12.446  0.515E+00  0.434E+00
  12.456  0.511E+00  0.431E+00
  12.466  0.506E+00  0.427E+00
  12.476  0.502E+00  0.424E+00
  12.486  0.498E+00  0.421E+00
  12.496  0.494E+00  0.418E+00
  12.506  0.490E+00  0.415E+00
  12.516  0.486E+00  0.412E+00
  12.526  0.483E+00  0.409E+00
  12.536  0.481E+00  0.407E+00
  12.546  0.479E+00  0.405E+00
  12.556  0.478E+00  0.403E+00
  12.566  0.477E+00  0.402E+00
  12.576  0.476E+00  0.401E+00
  12.586  0.477E+00  0.401E+00
  12.596  0.477E+00  0.400E+00
  12.606  0.479E+00  0.401E+00
  12.616  0.481E+00  0.401E+00
  12.626  0.483E+00  0.402E+00
  12.636  0.486E+00  0.404E+00
  12.646  0.489E+00  0.405E+00
  12.656  0.493E+00  0.407E+00
  12.666  0.497E+00  0.409E+00
  12.676  0.501E+00  0.412E+00
  12.686  0.505E+00  0.414E+00
  12.696  0.509E+00  0.417E+00
  12.706  0.514E+00  0.420E+00
  12.716  0.518E+00  0.423E+00
  12.726  0.522E+00  0.426E+00
  12.736  0.526E+00  0.430E+00
  12.746  0.530E+00  0.433E+00
  12.756  0.534E+00  0.436E+00
  12.766  0.537E+00  0.439E+00
  12.776  0.540E+00  0.442E+00
  12.786  0.543E+00  0.444E+00
  12.796  0.545E+00  0.446E+00
  12.806  0.547E+00  0.448E+00
  12.816  0.548E+00  0.450E+00
  12.826  0.549E+00  0.451E+00
  12.836  0.549E+00  0.451E+00
  12.846  0.549E+00  0.451E+00
  12.856  0.548E+00  0.450E+00
  12.866  0.547E+00  0.449E+00
  12.876  0.545E+00  0.447E+00
  12.886  0.543E+00  0.445E+00
  12.896  0.540E+00  0.443E+00
  12.906  0.538E+00  0.441E+00
  12.916  0.535E+00  0.438E+00
  12.926  0.533E+00  0.436E+00
  12.936  0.530E+00  0.433E+00
  12.946  0.528E+00  0.431E+00
  12.956  0.526E+00  0.429E+00
  12.966  0.525E+00  0.428E+00
  12.976  0.524E+00  0.427E+00
  12.986  0.523E+00  0.426E+00
  12.996  0.523E+00  0.426E+00
  13.006  0.524E+00  0.426E+00
  13.016  0.524E+00  0.427E+00
  13.026  0.525E+00  0.428E+00
  13.036  0.527E+00  0.429E+00
  13.046  0.528E+00  0.430E+00
  13.056  0.529E+00  0.431E+00
  13.066  0.531E+00  0.432E+00
  13.076  0.532E+00  0.433E+00
  13.086  0.533E+00  0.433E+00
  13.096  0.533E+00  0.434E+00
  13.106  0.533E+00  0.434E+00
  13.116  0.533E+00  0.434E+00
  13.126  0.533E+00  0.434E+00
  13.136  0.532E+00  0.433E+00
  13.146  0.531E+00  0.432E+00
  13.156  0.530E+00  0.431E+00
  13.166  0.528E+00  0.429E+00
  13.176  0.527E+00  0.428E+00
  13.186  0.525E+00  0.426E+00
  13.196  0.524E+00  0.425E+00
  13.206  0.523E+00  0.424E+00
  13.216  0.522E+00  0.423E+00
  13.226  0.522E+00  0.422E+00
  13.236  0.522E+00  0.422E+00
  13.246  0.523E+00  0.422E+00
  13.256  0.525E+00  0.423E+00
  13.266  0.527E+00  0.425E+00
  13.276  0.529E+00  0.427E+00
  13.286  0.533E+00  0.429E+00
  13.296  0.537E+00  0.432E+00
  13.306  0.541E+00  0.436E+00
  13.316  0.546E+00  0.440E+00
  13.326  0.551E+00  0.444E+00
  13.336  0.556E+00  0.449E+00
  13.346  0.561E+00  0.453E+00
  13.356  0.566E+00  0.457E+00
  13.366  0.571E+00  0.461E+00
  13.376  0.575E+00  0.464E+00
  13.386  0.579E+00  0.467E+00
  13.396  0.582E+00  0.470E+00
  13.406  0.584E+00  0.471E+00
  13.416  0.586E+00  0.472E+00
  13.426  0.587E+00  0.472E+00
  13.436  0.587E+00  0.472E+00
  13.446  0.587E+00  0.471E+00
  13.456  0.586E+00  0.469E+00
  13.466  0.585E+00  0.467E+00
  13.476  0.584E+00  0.465E+00
  13.486  0.582E+00  0.462E+00
  13.496  0.581E+00  0.460E+00
  13.506  0.579E+00  0.457E+00
  13.516  0.578E+00  0.455E+00
  13.526  0.577E+00  0.453E+00
  13.536  0.576E+00  0.451E+00
  13.546  0.576E+00  0.450E+00
  13.556  0.576E+00  0.449E+00
  13.566  0.576E+00  0.449E+00
  13.576  0.577E+00  0.449E+00
  13.586  0.578E+00  0.449E+00
  13.596  0.579E+00  0.450E+00
  13.606  0.581E+00  0.451E+00
  13.616  0.583E+00  0.452E+00
  13.626  0.585E+00  0.453E+00
  13.636  0.587E+00  0.455E+00
  13.646  0.589E+00  0.456E+00
  13.656  0.590E+00  0.457E+00
  13.666  0.592E+00  0.458E+00
  13.676  0.593E+00  0.459E+00
  13.686  0.594E+00  0.459E+00
  13.696  0.595E+00  0.459E+00
  13.706  0.595E+00  0.459E+00
  13.716  0.595E+00  0.459E+00
  13.726  0.595E+00  0.458E+00
  13.736  0.594E+00  0.458E+00
  13.746  0.593E+00  0.457E+00
  13.756  0.592E+00  0.456E+00
  13.766  0.591E+00  0.455E+00
  13.776  0.589E+00  0.453E+00
  13.786  0.588E+00  0.452E+00
  13.796  0.586E+00  0.451E+00
  13.806  0.585E+00  0.450E+00
  13.816  0.583E+00  0.449E+00
  13.826  0.581E+00  0.448E+00
  13.836  0.580E+00  0.447E+00
  13.846  0.578E+00  0.446E+00
  13.856  0.577E+00  0.445E+00
  13.866  0.575E+00  0.445E+00
  13.876  0.574E+00  0.444E+00
  13.886  0.572E+00  0.444E+00
  13.896  0.571E+00  0.443E+00
  13.906  0.570E+00  0.443E+00
  13.916  0.569E+00  0.442E+00
  13.926  0.567E+00  0.442E+00
  13.936  0.566E+00  0.441E+00
  13.946  0.565E+00  0.440E+00
  13.956  0.564E+00  0.439E+00
  13.966  0.563E+00  0.438E+00
  13.976  0.561E+00  0.436E+00
  13.986  0.561E+00  0.435E+00
  13.996  0.560E+00  0.434E+00
  14.006  0.559E+00  0.433E+00
  14.016  0.559E+00  0.432E+00
  14.026  0.558E+00  0.431E+00
  14.036  0.558E+00  0.430E+00
  14.046  0.558E+00  0.429E+00
  14.056  0.559E+00  0.429E+00
  14.066  0.560E+00  0.429E+00
  14.076  0.561E+00  0.430E+00
  14.086  0.563E+00  0.431E+00
  14.096  0.564E+00  0.432E+00
  14.106  0.566E+00  0.433E+00
  14.116  0.569E+00  0.435E+00
  14.126  0.571E+00  0.437E+00
  14.136  0.573E+00  0.439E+00
  14.146  0.576E+00  0.441E+00
  14.156  0.578E+00  0.443E+00
  14.166  0.580E+00  0.445E+00
  14.176  0.582E+00  0.447E+00
  14.186  0.584E+00  0.448E+00
  14.196  0.585E+00  0.449E+00
  14.206  0.585E+00  0.450E+00
  14.216  0.585E+00  0.449E+00
  14.226  0.585E+00  0.449E+00
  14.236  0.583E+00  0.448E+00
  14.246  0.582E+00  0.446E+00
  14.256  0.579E+00  0.444E+00
  14.266  0.577E+00  0.441E+00
  14.276  0.573E+00  0.439E+00
  14.286  0.570E+00  0.435E+00
  14.296  0.566E+00  0.432E+00
  14.306  0.562E+00  0.428E+00
  14.316  0.558E+00  0.425E+00
  14.326  0.554E+00  0.421E+00
  14.336  0.551E+00  0.418E+00
  14.346  0.547E+00  0.414E+00
  14.356  0.544E+00  0.411E+00
  14.366  0.541E+00  0.408E+00
  14.376  0.538E+00  0.405E+00
  14.386  0.535E+00  0.403E+00
  14.396  0.533E+00  0.401E+00
  14.406  0.531E+00  0.399E+00
  14.416  0.529E+00  0.397E+00
  14.426  0.528E+00  0.395E+00
  14.436  0.527E+00  0.393E+00
  14.446  0.526E+00  0.392E+00
  14.456  0.526E+00  0.391E+00
  14.466  0.525E+00  0.390E+00
  14.476  0.525E+00  0.389E+00
  14.486  0.526E+00  0.389E+00
  14.496  0.526E+00  0.389E+00
  14.506  0.527E+00  0.389E+00
  14.516  0.529E+00  0.389E+00
  14.526  0.530E+00  0.389E+00
  14.536  0.532E+00  0.390E+00
  14.546  0.535E+00  0.391E+00
  14.556  0.538E+00  0.393E+00
  14.566  0.541E+00  0.394E+00
  14.576  0.544E+00  0.396E+00
  14.586  0.547E+00  0.398E+00
  14.596  0.551E+00  0.400E+00
  14.606  0.554E+00  0.402E+00
  14.616  0.557E+00  0.404E+00
  14.626  0.560E+00  0.406E+00
  14.636  0.563E+00  0.408E+00
  14.646  0.565E+00  0.409E+00
  14.656  0.567E+00  0.410E+00
  14.666  0.568E+00  0.410E+00
  14.676  0.569E+00  0.411E+00
  14.686  0.568E+00  0.410E+00
  14.696  0.567E+00  0.409E+00
  14.706  0.566E+00  0.408E+00
  14.716  0.563E+00  0.406E+00
  14.726  0.560E+00  0.403E+00
  14.736  0.557E+00  0.401E+00
  14.746  0.553E+00  0.398E+00
  14.756  0.548E+00  0.394E+00
  14.766  0.544E+00  0.391E+00
  14.776  0.539E+00  0.387E+00
  14.786  0.535E+00  0.384E+00
  14.796  0.530E+00  0.380E+00
  14.806  0.526E+00  0.377E+00
  14.816  0.522E+00  0.374E+00
  14.826  0.519E+00  0.371E+00
  14.836  0.516E+00  0.369E+00
  14.846  0.514E+00  0.367E+00
  14.856  0.513E+00  0.366E+00
  14.866  0.512E+00  0.365E+00
  14.876  0.512E+00  0.364E+00
  14.886  0.513E+00  0.364E+00
  14.896  0.514E+00  0.364E+00
  14.906  0.515E+00  0.365E+00
  14.916  0.517E+00  0.366E+00
  14.926  0.520E+00  0.367E+00
  14.936  0.523E+00  0.368E+00
  14.946  0.526E+00  0.369E+00
  14.956  0.529E+00  0.370E+00
  14.966  0.532E+00  0.371E+00
  14.976  0.535E+00  0.372E+00
  14.986  0.538E+00  0.373E+00
  14.996  0.541E+00  0.373E+00
  15.006  0.544E+00  0.374E+00
  15.016  0.546E+00  0.373E+00
  15.026  0.547E+00  0.373E+00
  15.036  0.549E+00  0.372E+00
  15.046  0.550E+00  0.371E+00
  15.056  0.550E+00  0.370E+00
  15.066  0.550E+00  0.368E+00
  15.076  0.550E+00  0.367E+00
  15.086  0.549E+00  0.365E+00
  15.096  0.548E+00  0.363E+00
  15.106  0.546E+00  0.361E+00
  15.116  0.545E+00  0.359E+00
  15.126  0.543E+00  0.357E+00
  15.136  0.541E+00  0.355E+00
  15.146  0.540E+00  0.353E+00
  15.156  0.538E+00  0.351E+00
  15.166  0.536E+00  0.350E+00
  15.176  0.534E+00  0.348E+00
  15.186  0.532E+00  0.347E+00
  15.196  0.530E+00  0.345E+00
  15.206  0.528E+00  0.344E+00
  15.216  0.527E+00  0.343E+00
  15.226  0.525E+00  0.341E+00
  15.236  0.523E+00  0.340E+00
  15.246  0.521E+00  0.339E+00
  15.256  0.520E+00  0.338E+00
  15.266  0.518E+00  0.337E+00
  15.276  0.517E+00  0.336E+00
  15.286  0.515E+00  0.334E+00
  15.296  0.514E+00  0.333E+00
  15.306  0.512E+00  0.332E+00
  15.316  0.511E+00  0.331E+00
  15.326  0.511E+00  0.330E+00
  15.336  0.510E+00  0.330E+00
  15.346  0.510E+00  0.329E+00
  15.356  0.511E+00  0.329E+00
  15.366  0.512E+00  0.329E+00
  15.376  0.514E+00  0.329E+00
  15.386  0.516E+00  0.329E+00
  15.396  0.518E+00  0.330E+00
  15.406  0.521E+00  0.331E+00
  15.416  0.524E+00  0.331E+00
  15.426  0.528E+00  0.333E+00
  15.436  0.532E+00  0.334E+00
  15.446  0.536E+00  0.335E+00
  15.456  0.540E+00  0.336E+00
  15.466  0.544E+00  0.337E+00
  15.476  0.547E+00  0.338E+00
  15.486  0.550E+00  0.339E+00
  15.496  0.553E+00  0.340E+00
  15.506  0.555E+00  0.340E+00
  15.516  0.557E+00  0.340E+00
  15.526  0.558E+00  0.340E+00
  15.536  0.558E+00  0.339E+00
  15.546  0.558E+00  0.338E+00
  15.556  0.557E+00  0.337E+00
  15.566  0.556E+00  0.335E+00
  15.576  0.554E+00  0.333E+00
  15.586  0.551E+00  0.331E+00
  15.596  0.548E+00  0.329E+00
  15.606  0.545E+00  0.326E+00
  15.616  0.542E+00  0.324E+00
  15.626  0.538E+00  0.321E+00
  15.636  0.535E+00  0.318E+00
  15.646  0.531E+00  0.316E+00
  15.656  0.528E+00  0.313E+00
  15.666  0.524E+00  0.310E+00
  15.676  0.521E+00  0.308E+00
  15.686  0.518E+00  0.306E+00
  15.696  0.516E+00  0.304E+00
  15.706  0.514E+00  0.302E+00
  15.716  0.512E+00  0.301E+00
  15.726  0.511E+00  0.299E+00
  15.736  0.510E+00  0.298E+00
  15.746  0.509E+00  0.298E+00
  15.756  0.509E+00  0.297E+00
  15.766  0.510E+00  0.297E+00
  15.776  0.511E+00  0.297E+00
  15.786  0.512E+00  0.297E+00
  15.796  0.514E+00  0.298E+00
  15.806  0.516E+00  0.298E+00
  15.816  0.519E+00  0.299E+00
  15.826  0.521E+00  0.300E+00
  15.836  0.524E+00  0.301E+00
  15.846  0.527E+00  0.302E+00
  15.856  0.530E+00  0.303E+00
  15.866  0.532E+00  0.304E+00
  15.876  0.535E+00  0.304E+00
  15.886  0.537E+00  0.305E+00
  15.896  0.540E+00  0.305E+00
  15.906  0.541E+00  0.305E+00
  15.916  0.543E+00  0.305E+00
  15.926  0.544E+00  0.305E+00
  15.936  0.545E+00  0.304E+00
  15.946  0.545E+00  0.303E+00
  15.956  0.545E+00  0.302E+00
  15.966  0.544E+00  0.301E+00
  15.976  0.544E+00  0.299E+00
  15.986  0.543E+00  0.297E+00
  15.996  0.541E+00  0.296E+00
  16.006  0.540E+00  0.294E+00
  16.016  0.538E+00  0.292E+00
  16.026  0.536E+00  0.290E+00
  16.036  0.535E+00  0.288E+00
  16.046  0.533E+00  0.287E+00
  16.056  0.531E+00  0.285E+00
  16.066  0.529E+00  0.283E+00
  16.076  0.527E+00  0.282E+00
  16.086  0.526E+00  0.280E+00
  16.096  0.524E+00  0.279E+00
  16.106  0.522E+00  0.277E+00
  16.116  0.521E+00  0.276E+00
  16.126  0.519E+00  0.275E+00
  16.136  0.518E+00  0.274E+00
  16.146  0.517E+00  0.273E+00
  16.156  0.516E+00  0.272E+00
  16.166  0.515E+00  0.271E+00
  16.176  0.515E+00  0.271E+00
  16.186  0.515E+00  0.270E+00
  16.196  0.515E+00  0.270E+00
  16.206  0.516E+00  0.270E+00
  16.216  0.518E+00  0.271E+00
  16.226  0.520E+00  0.272E+00
  16.236  0.522E+00  0.272E+00
  16.246  0.525E+00  0.274E+00
  16.256  0.527E+00  0.275E+00
  16.266  0.531E+00  0.276E+00
  16.276  0.534E+00  0.278E+00
  16.286  0.537E+00  0.279E+00
  16.296  0.541E+00  0.280E+00
  16.306  0.544E+00  0.281E+00
  16.316  0.547E+00  0.282E+00
  16.326  0.549E+00  0.283E+00
  16.336  0.551E+00  0.283E+00
  16.346  0.553E+00  0.283E+00
  16.356  0.554E+00  0.283E+00
  16.366  0.554E+00  0.282E+00
  16.376  0.554E+00  0.281E+00
  16.386  0.553E+00  0.279E+00
  16.396  0.552E+00  0.277E+00
  16.406  0.550E+00  0.275E+00
  16.416  0.548E+00  0.273E+00
  16.426  0.545E+00  0.270E+00
  16.436  0.543E+00  0.267E+00
  16.446  0.540E+00  0.264E+00
  16.456  0.536E+00  0.261E+00
  16.466  0.533E+00  0.258E+00
  16.476  0.530E+00  0.255E+00
  16.486  0.527E+00  0.252E+00
  16.496  0.524E+00  0.249E+00
  16.506  0.521E+00  0.247E+00
  16.516  0.519E+00  0.245E+00
  16.526  0.516E+00  0.243E+00
  16.536  0.514E+00  0.241E+00
  16.546  0.511E+00  0.239E+00
  16.556  0.509E+00  0.238E+00
  16.566  0.508E+00  0.236E+00
  16.576  0.506E+00  0.235E+00
  16.586  0.505E+00  0.234E+00
  16.596  0.504E+00  0.234E+00
  16.606  0.503E+00  0.233E+00
  16.616  0.503E+00  0.233E+00
  16.626  0.503E+00  0.233E+00
  16.636  0.504E+00  0.234E+00
  16.646  0.505E+00  0.234E+00
  16.656  0.507E+00  0.235E+00
  16.666  0.510E+00  0.236E+00
  16.676  0.512E+00  0.238E+00
  16.686  0.515E+00  0.239E+00
  16.696  0.519E+00  0.241E+00
  16.706  0.523E+00  0.243E+00
  16.716  0.526E+00  0.245E+00
  16.726  0.530E+00  0.247E+00
  16.736  0.534E+00  0.249E+00
  16.746  0.538E+00  0.251E+00
  16.756  0.541E+00  0.253E+00
  16.766  0.544E+00  0.254E+00
  16.776  0.547E+00  0.256E+00
  16.786  0.549E+00  0.257E+00
  16.796  0.551E+00  0.258E+00
  16.806  0.552E+00  0.258E+00
  16.816  0.552E+00  0.259E+00
  16.826  0.552E+00  0.258E+00
  16.836  0.552E+00  0.258E+00
  16.846  0.551E+00  0.257E+00
  16.856  0.549E+00  0.256E+00
  16.866  0.548E+00  0.254E+00
  16.876  0.546E+00  0.252E+00
  16.886  0.544E+00  0.250E+00
  16.896  0.541E+00  0.248E+00
  16.906  0.539E+00  0.246E+00
  16.916  0.537E+00  0.243E+00
  16.926  0.534E+00  0.240E+00
  16.936  0.532E+00  0.237E+00
  16.946  0.530E+00  0.235E+00
  16.956  0.528E+00  0.232E+00
  16.966  0.526E+00  0.229E+00
  16.976  0.524E+00  0.226E+00
  16.986  0.522E+00  0.224E+00
  16.996  0.521E+00  0.221E+00
  17.006  0.519E+00  0.219E+00
  17.016  0.518E+00  0.217E+00
  17.026  0.518E+00  0.216E+00
  17.036  0.517E+00  0.214E+00
  17.046  0.517E+00  0.213E+00
  17.056  0.518E+00  0.212E+00
  17.066  0.519E+00  0.212E+00
  17.076  0.520E+00  0.212E+00
  17.086  0.522E+00  0.212E+00
  17.096  0.524E+00  0.212E+00
  17.106  0.526E+00  0.213E+00
  17.116  0.529E+00  0.214E+00
  17.126  0.532E+00  0.215E+00
  17.136  0.535E+00  0.217E+00
  17.146  0.538E+00  0.218E+00
  17.156  0.541E+00  0.220E+00
  17.166  0.544E+00  0.221E+00
  17.176  0.547E+00  0.223E+00
  17.186  0.549E+00  0.224E+00
  17.196  0.551E+00  0.225E+00
  17.206  0.553E+00  0.226E+00
  17.216  0.554E+00  0.227E+00
  17.226  0.555E+00  0.227E+00
  17.236  0.555E+00  0.227E+00
  17.246  0.555E+00  0.227E+00
  17.256  0.554E+00  0.227E+00
  17.266  0.553E+00  0.226E+00
  17.276  0.552E+00  0.226E+00
  17.286  0.550E+00  0.225E+00
  17.296  0.548E+00  0.224E+00
  17.306  0.546E+00  0.222E+00
  17.316  0.544E+00  0.221E+00
  17.326  0.542E+00  0.220E+00
  17.336  0.541E+00  0.218E+00
  17.346  0.539E+00  0.217E+00
  17.356  0.538E+00  0.215E+00
  17.366  0.537E+00  0.214E+00
  17.376  0.536E+00  0.213E+00
  17.386  0.536E+00  0.212E+00
  17.396  0.536E+00  0.211E+00
  17.406  0.536E+00  0.210E+00
  17.416  0.537E+00  0.209E+00
  17.426  0.539E+00  0.209E+00
  17.436  0.540E+00  0.208E+00
  17.446  0.542E+00  0.208E+00
  17.456  0.544E+00  0.208E+00
  17.466  0.547E+00  0.207E+00
  17.476  0.549E+00  0.207E+00
  17.486  0.552E+00  0.207E+00
  17.496  0.554E+00  0.206E+00
  17.506  0.557E+00  0.206E+00
  17.516  0.559E+00  0.206E+00
  17.526  0.562E+00  0.206E+00
  17.536  0.564E+00  0.205E+00
  17.546  0.565E+00  0.205E+00
  17.556  0.567E+00  0.205E+00
  17.566  0.568E+00  0.204E+00
  17.576  0.569E+00  0.204E+00
  17.586  0.569E+00  0.204E+00
  17.596  0.569E+00  0.203E+00
  17.606  0.568E+00  0.203E+00
  17.616  0.568E+00  0.203E+00
  17.626  0.567E+00  0.202E+00
  17.636  0.565E+00  0.202E+00
  17.646  0.564E+00  0.202E+00
  17.656  0.562E+00  0.201E+00
  17.666  0.560E+00  0.201E+00
  17.676  0.558E+00  0.200E+00
  17.686  0.556E+00  0.200E+00
  17.696  0.554E+00  0.200E+00
  17.706  0.553E+00  0.199E+00
  17.716  0.551E+00  0.199E+00
  17.726  0.550E+00  0.198E+00
  17.736  0.549E+00  0.198E+00
  17.746  0.548E+00  0.197E+00
  17.756  0.548E+00  0.197E+00
  17.766  0.548E+00  0.197E+00
  17.776  0.548E+00  0.197E+00
  17.786  0.548E+00  0.196E+00
  17.796  0.549E+00  0.196E+00
  17.806  0.551E+00  0.196E+00
  17.816  0.552E+00  0.196E+00
  17.826  0.554E+00  0.196E+00
  17.836  0.556E+00  0.196E+00
  17.846  0.559E+00  0.196E+00
  17.856  0.561E+00  0.197E+00
  17.866  0.564E+00  0.197E+00
  17.876  0.567E+00  0.197E+00
  17.886  0.569E+00  0.197E+00
  17.896  0.571E+00  0.197E+00
  17.906  0.573E+00  0.197E+00
  17.916  0.575E+00  0.197E+00
  17.926  0.576E+00  0.196E+00
  17.936  0.577E+00  0.196E+00
  17.946  0.577E+00  0.195E+00
  17.956  0.577E+00  0.194E+00
  17.966  0.575E+00  0.194E+00
  17.976  0.574E+00  0.192E+00
  17.986  0.572E+00  0.191E+00
  17.996  0.569E+00  0.190E+00
  18.006  0.566E+00  0.188E+00
  18.016  0.563E+00  0.187E+00
  18.026  0.559E+00  0.185E+00
  18.036  0.556E+00  0.183E+00
  18.046  0.553E+00  0.182E+00
  18.056  0.550E+00  0.180E+00
  18.066  0.547E+00  0.179E+00
  18.076  0.545E+00  0.178E+00
  18.086  0.543E+00  0.177E+00
  18.096  0.543E+00  0.176E+00
  18.106  0.543E+00  0.176E+00
  18.116  0.543E+00  0.176E+00
  18.126  0.545E+00  0.176E+00
  18.136  0.547E+00  0.177E+00
  18.146  0.550E+00  0.178E+00
  18.156  0.553E+00  0.179E+00
  18.166  0.557E+00  0.180E+00
  18.176  0.561E+00  0.181E+00
  18.186  0.566E+00  0.183E+00
  18.196  0.570E+00  0.185E+00
  18.206  0.575E+00  0.187E+00
  18.216  0.580E+00  0.188E+00
  18.226  0.584E+00  0.190E+00
  18.236  0.588E+00  0.192E+00
  18.246  0.592E+00  0.193E+00
  18.256  0.596E+00  0.194E+00
  18.266  0.598E+00  0.195E+00
  18.276  0.601E+00  0.196E+00
  18.286  0.602E+00  0.196E+00
  18.296  0.603E+00  0.197E+00
  18.306  0.603E+00  0.197E+00
  18.316  0.603E+00  0.196E+00
  18.326  0.602E+00  0.196E+00
  18.336  0.600E+00  0.195E+00
  18.346  0.597E+00  0.194E+00
  18.356  0.594E+00  0.193E+00
  18.366  0.591E+00  0.191E+00
  18.376  0.587E+00  0.190E+00
  18.386  0.582E+00  0.188E+00
  18.396  0.578E+00  0.187E+00
  18.406  0.573E+00  0.185E+00
  18.416  0.569E+00  0.183E+00
  18.426  0.564E+00  0.181E+00
  18.436  0.560E+00  0.180E+00
  18.446  0.557E+00  0.178E+00
  18.456  0.553E+00  0.177E+00
  18.466  0.551E+00  0.175E+00
  18.476  0.549E+00  0.174E+00
  18.486  0.547E+00  0.173E+00
  18.496  0.546E+00  0.172E+00
  18.506  0.546E+00  0.171E+00
  18.516  0.546E+00  0.170E+00
  18.526  0.546E+00  0.170E+00
  18.536  0.547E+00  0.169E+00
  18.546  0.549E+00  0.168E+00
  18.556  0.550E+00  0.168E+00
  18.566  0.552E+00  0.167E+00
  18.576  0.553E+00  0.167E+00
  18.586  0.555E+00  0.167E+00
  18.596  0.557E+00  0.167E+00
  18.606  0.560E+00  0.167E+00
  18.616  0.562E+00  0.167E+00
  18.626  0.565E+00  0.168E+00
  18.636  0.567E+00  0.168E+00
  18.646  0.570E+00  0.169E+00
  18.656  0.574E+00  0.170E+00
  18.666  0.577E+00  0.171E+00
  18.676  0.580E+00  0.172E+00
  18.686  0.584E+00  0.174E+00
  18.696  0.588E+00  0.175E+00
  18.706  0.592E+00  0.177E+00
  18.716  0.595E+00  0.179E+00
  18.726  0.599E+00  0.180E+00
  18.736  0.603E+00  0.182E+00
  18.746  0.606E+00  0.183E+00
  18.756  0.609E+00  0.185E+00
  18.766  0.612E+00  0.186E+00
  18.776  0.614E+00  0.187E+00
  18.786  0.616E+00  0.188E+00
  18.796  0.618E+00  0.189E+00
  18.806  0.619E+00  0.189E+00
  18.816  0.620E+00  0.190E+00
  18.826  0.621E+00  0.190E+00
  18.836  0.621E+00  0.190E+00
  18.846  0.622E+00  0.190E+00
  18.856  0.622E+00  0.190E+00
  18.866  0.622E+00  0.190E+00
  18.876  0.623E+00  0.190E+00
  18.886  0.623E+00  0.190E+00
  18.896  0.623E+00  0.190E+00
  18.906  0.623E+00  0.190E+00
  18.916  0.623E+00  0.190E+00
  18.926  0.623E+00  0.190E+00
  18.936  0.622E+00  0.190E+00
  18.946  0.622E+00  0.191E+00
  18.956  0.622E+00  0.191E+00
  18.966  0.621E+00  0.191E+00
  18.976  0.620E+00  0.191E+00
  18.986  0.619E+00  0.191E+00
  18.996  0.618E+00  0.192E+00
  19.006  0.617E+00  0.192E+00
  19.016  0.616E+00  0.192E+00
  19.026  0.614E+00  0.192E+00
  19.036  0.613E+00  0.192E+00
  19.046  0.612E+00  0.193E+00
  19.056  0.611E+00  0.193E+00
  19.066  0.610E+00  0.193E+00
  19.076  0.610E+00  0.193E+00
  19.086  0.610E+00  0.193E+00
  19.096  0.610E+00  0.193E+00
  19.106  0.610E+00  0.194E+00
  19.116  0.611E+00  0.194E+00
  19.126  0.613E+00  0.195E+00
  19.136  0.615E+00  0.195E+00
  19.146  0.617E+00  0.196E+00
  19.156  0.620E+00  0.196E+00
  19.166  0.623E+00  0.197E+00
  19.176  0.627E+00  0.198E+00
  19.186  0.631E+00  0.199E+00
  19.196  0.636E+00  0.200E+00
  19.206  0.640E+00  0.201E+00
  19.216  0.645E+00  0.202E+00
  19.226  0.650E+00  0.204E+00
  19.236  0.655E+00  0.205E+00
  19.246  0.660E+00  0.206E+00
  19.256  0.666E+00  0.207E+00
  19.266  0.671E+00  0.209E+00
  19.276  0.676E+00  0.210E+00
  19.286  0.680E+00  0.211E+00
  19.296  0.685E+00  0.212E+00
  19.306  0.689E+00  0.213E+00
  19.316  0.693E+00  0.213E+00
  19.326  0.696E+00  0.214E+00
  19.336  0.699E+00  0.215E+00
  19.346  0.701E+00  0.215E+00
  19.356  0.703E+00  0.215E+00
  19.366  0.704E+00  0.215E+00
  19.376  0.705E+00  0.215E+00
  19.386  0.705E+00  0.215E+00
  19.396  0.704E+00  0.214E+00
  19.406  0.703E+00  0.214E+00
  19.416  0.701E+00  0.213E+00
  19.426  0.699E+00  0.212E+00
  19.436  0.696E+00  0.211E+00
  19.446  0.693E+00  0.210E+00
  19.456  0.689E+00  0.208E+00
  19.466  0.685E+00  0.207E+00
  19.476  0.682E+00  0.205E+00
  19.486  0.678E+00  0.204E+00
  19.496  0.674E+00  0.202E+00
  19.506  0.671E+00  0.201E+00
  19.516  0.668E+00  0.199E+00
  19.526  0.666E+00  0.198E+00
  19.536  0.664E+00  0.196E+00
  19.546  0.663E+00  0.195E+00
  19.556  0.662E+00  0.194E+00
  19.566  0.662E+00  0.193E+00
  19.576  0.663E+00  0.192E+00
  19.586  0.663E+00  0.191E+00
  19.596  0.664E+00  0.190E+00
  19.606  0.666E+00  0.189E+00
  19.616  0.667E+00  0.189E+00
  19.626  0.669E+00  0.188E+00
  19.636  0.670E+00  0.188E+00
  19.646  0.671E+00  0.187E+00
  19.656  0.672E+00  0.187E+00
  19.666  0.673E+00  0.187E+00
  19.676  0.673E+00  0.186E+00
  19.686  0.673E+00  0.186E+00
  19.696  0.672E+00  0.185E+00
  19.706  0.671E+00  0.185E+00
  19.716  0.669E+00  0.184E+00
  19.726  0.667E+00  0.183E+00
  19.736  0.665E+00  0.183E+00
  19.746  0.662E+00  0.182E+00
  19.756  0.660E+00  0.181E+00
  19.766  0.657E+00  0.180E+00
  19.776  0.655E+00  0.180E+00
  19.786  0.652E+00  0.179E+00
  19.796  0.650E+00  0.178E+00
  19.806  0.648E+00  0.178E+00
  19.816  0.647E+00  0.177E+00
  19.826  0.646E+00  0.177E+00
  19.836  0.646E+00  0.177E+00
  19.846  0.646E+00  0.177E+00
  19.856  0.647E+00  0.176E+00
  19.866  0.648E+00  0.177E+00
  19.876  0.650E+00  0.177E+00
  19.886  0.652E+00  0.177E+00
  19.896  0.655E+00  0.177E+00
  19.906  0.657E+00  0.178E+00
  19.916  0.660E+00  0.178E+00
  19.926  0.663E+00  0.179E+00
  19.936  0.666E+00  0.179E+00
  19.946  0.669E+00  0.179E+00
  19.956  0.671E+00  0.179E+00
  19.966  0.672E+00  0.179E+00
  19.976  0.674E+00  0.179E+00
  19.986  0.674E+00  0.179E+00
  19.996  0.674E+00  0.179E+00
  20.006  0.674E+00  0.178E+00
  20.016  0.673E+00  0.177E+00
  20.026  0.671E+00  0.176E+00
  20.036  0.670E+00  0.175E+00
  20.046  0.668E+00  0.173E+00
  20.056  0.665E+00  0.172E+00
  20.066  0.663E+00  0.170E+00
  20.076  0.661E+00  0.169E+00
  20.086  0.659E+00  0.167E+00
  20.096  0.657E+00  0.166E+00
  20.106  0.656E+00  0.164E+00
  20.116  0.655E+00  0.163E+00
  20.126  0.655E+00  0.162E+00
  20.136  0.655E+00  0.161E+00
  20.146  0.655E+00  0.160E+00
  20.156  0.656E+00  0.159E+00
  20.166  0.658E+00  0.159E+00
  20.176  0.659E+00  0.158E+00
  20.186  0.661E+00  0.158E+00
  20.196  0.663E+00  0.158E+00
  20.206  0.666E+00  0.158E+00
  20.216  0.668E+00  0.159E+00
  20.226  0.671E+00  0.159E+00
  20.236  0.673E+00  0.159E+00
  20.246  0.675E+00  0.160E+00
  20.256  0.677E+00  0.160E+00
  20.266  0.678E+00  0.161E+00
  20.276  0.679E+00  0.161E+00
  20.286  0.680E+00  0.161E+00
  20.296  0.680E+00  0.161E+00
  20.306  0.680E+00  0.161E+00
  20.316  0.680E+00  0.161E+00
  20.326  0.680E+00  0.161E+00
  20.336  0.679E+00  0.161E+00
  20.346  0.677E+00  0.160E+00
  20.356  0.676E+00  0.160E+00
  20.366  0.674E+00  0.159E+00
  20.376  0.673E+00  0.158E+00
  20.386  0.671E+00  0.158E+00
  20.396  0.670E+00  0.157E+00
  20.406  0.668E+00  0.156E+00
  20.416  0.667E+00  0.155E+00
  20.426  0.666E+00  0.155E+00
  20.436  0.665E+00  0.154E+00
  20.446  0.664E+00  0.153E+00
  20.456  0.663E+00  0.153E+00
  20.466  0.663E+00  0.152E+00
  20.476  0.662E+00  0.152E+00
  20.486  0.662E+00  0.152E+00
  20.496  0.661E+00  0.152E+00
  20.506  0.661E+00  0.152E+00
  20.516  0.660E+00  0.152E+00
  20.526  0.659E+00  0.152E+00
  20.536  0.658E+00  0.152E+00
  20.546  0.656E+00  0.151E+00
  20.556  0.654E+00  0.151E+00
  20.566  0.652E+00  0.151E+00
  20.576  0.650E+00  0.151E+00
  20.586  0.648E+00  0.150E+00
  20.596  0.645E+00  0.149E+00
  20.606  0.642E+00  0.149E+00
  20.616  0.639E+00  0.148E+00
  20.626  0.636E+00  0.147E+00
  20.636  0.633E+00  0.146E+00
  20.646  0.630E+00  0.145E+00
  20.656  0.627E+00  0.144E+00
  20.666  0.624E+00  0.143E+00
  20.676  0.622E+00  0.142E+00
  20.686  0.620E+00  0.141E+00
  20.696  0.618E+00  0.140E+00
  20.706  0.616E+00  0.139E+00
  20.716  0.614E+00  0.138E+00
  20.726  0.613E+00  0.137E+00
  20.736  0.612E+00  0.137E+00
  20.746  0.612E+00  0.136E+00
  20.756  0.611E+00  0.136E+00
  20.766  0.611E+00  0.135E+00
  20.776  0.611E+00  0.135E+00
  20.786  0.611E+00  0.135E+00
  20.796  0.611E+00  0.135E+00
  20.806  0.611E+00  0.135E+00
  20.816  0.611E+00  0.135E+00
  20.826  0.611E+00  0.134E+00
  20.836  0.611E+00  0.134E+00
  20.846  0.611E+00  0.134E+00
  20.856  0.611E+00  0.134E+00
  20.866  0.611E+00  0.134E+00
  20.876  0.611E+00  0.134E+00
  20.886  0.610E+00  0.134E+00
  20.896  0.610E+00  0.134E+00
  20.906  0.610E+00  0.133E+00
  20.916  0.609E+00  0.133E+00
  20.926  0.609E+00  0.133E+00
  20.936  0.609E+00  0.133E+00
  20.946  0.610E+00  0.133E+00
  20.956  0.610E+00  0.133E+00
  20.966  0.611E+00  0.133E+00
  20.976  0.612E+00  0.133E+00
  20.986  0.614E+00  0.133E+00
  20.996  0.615E+00  0.133E+00
  21.006  0.618E+00  0.133E+00
  21.016  0.620E+00  0.134E+00
  21.026  0.623E+00  0.134E+00
  21.036  0.625E+00  0.134E+00
  21.046  0.628E+00  0.134E+00
  21.056  0.631E+00  0.135E+00
  21.066  0.634E+00  0.135E+00
  21.076  0.637E+00  0.135E+00
  21.086  0.639E+00  0.135E+00
  21.096  0.642E+00  0.135E+00
  21.106  0.644E+00  0.135E+00
  21.116  0.646E+00  0.135E+00
  21.126  0.647E+00  0.135E+00
  21.136  0.648E+00  0.134E+00
  21.146  0.648E+00  0.134E+00
  21.156  0.648E+00  0.133E+00
  21.166  0.647E+00  0.133E+00
  21.176  0.646E+00  0.132E+00
  21.186  0.644E+00  0.131E+00
  21.196  0.642E+00  0.131E+00
  21.206  0.640E+00  0.130E+00
  21.216  0.637E+00  0.129E+00
  21.226  0.634E+00  0.128E+00
  21.236  0.630E+00  0.127E+00
  21.246  0.626E+00  0.127E+00
  21.256  0.623E+00  0.126E+00
  21.266  0.619E+00  0.125E+00
  21.276  0.615E+00  0.124E+00
  21.286  0.611E+00  0.124E+00
  21.296  0.607E+00  0.123E+00
  21.306  0.604E+00  0.123E+00
  21.316  0.601E+00  0.123E+00
  21.326  0.598E+00  0.123E+00
  21.336  0.596E+00  0.122E+00
  21.346  0.594E+00  0.122E+00
  21.356  0.593E+00  0.122E+00
  21.366  0.591E+00  0.123E+00
  21.376  0.591E+00  0.123E+00
  21.386  0.590E+00  0.123E+00
  21.396  0.590E+00  0.124E+00
  21.406  0.590E+00  0.124E+00
  21.416  0.591E+00  0.124E+00
  21.426  0.591E+00  0.125E+00
  21.436  0.592E+00  0.125E+00
  21.446  0.592E+00  0.125E+00
  21.456  0.593E+00  0.125E+00
  21.466  0.593E+00  0.125E+00
  21.476  0.594E+00  0.125E+00
  21.486  0.594E+00  0.125E+00
  21.496  0.594E+00  0.125E+00
  21.506  0.594E+00  0.125E+00
  21.516  0.593E+00  0.124E+00
  21.526  0.593E+00  0.124E+00
  21.536  0.592E+00  0.123E+00
  21.546  0.591E+00  0.122E+00
  21.556  0.589E+00  0.121E+00
  21.566  0.588E+00  0.121E+00
  21.576  0.586E+00  0.120E+00
  21.586  0.585E+00  0.119E+00
  21.596  0.583E+00  0.119E+00
  21.606  0.582E+00  0.118E+00
  21.616  0.581E+00  0.118E+00
  21.626  0.580E+00  0.117E+00
  21.636  0.579E+00  0.117E+00
  21.646  0.578E+00  0.117E+00
  21.656  0.578E+00  0.117E+00
  21.666  0.578E+00  0.118E+00
  21.676  0.579E+00  0.118E+00
  21.686  0.580E+00  0.119E+00
  21.696  0.581E+00  0.119E+00
  21.706  0.582E+00  0.120E+00
  21.716  0.584E+00  0.121E+00
  21.726  0.586E+00  0.122E+00
  21.736  0.589E+00  0.123E+00
  21.746  0.591E+00  0.124E+00
  21.756  0.594E+00  0.124E+00
  21.766  0.596E+00  0.125E+00
  21.776  0.599E+00  0.126E+00
  21.786  0.601E+00  0.127E+00
  21.796  0.604E+00  0.127E+00
  21.806  0.606E+00  0.127E+00
  21.816  0.608E+00  0.128E+00
  21.826  0.610E+00  0.128E+00
  21.836  0.611E+00  0.128E+00
  21.846  0.613E+00  0.128E+00
  21.856  0.614E+00  0.128E+00
  21.866  0.616E+00  0.128E+00
  21.876  0.617E+00  0.128E+00
  21.886  0.618E+00  0.127E+00
  21.896  0.619E+00  0.127E+00
  21.906  0.620E+00  0.127E+00
  21.916  0.621E+00  0.127E+00
  21.926  0.622E+00  0.127E+00
  21.936  0.623E+00  0.127E+00
  21.946  0.624E+00  0.127E+00
  21.956  0.625E+00  0.127E+00
  21.966  0.626E+00  0.127E+00
  21.976  0.627E+00  0.127E+00
  21.986  0.628E+00  0.127E+00
  21.996  0.629E+00  0.128E+00
  22.006  0.630E+00  0.128E+00
  22.016  0.631E+00  0.129E+00
  22.026  0.631E+00  0.129E+00
  22.036  0.632E+00  0.130E+00
  22.046  0.632E+00  0.130E+00
  22.056  0.632E+00  0.131E+00
  22.066  0.632E+00  0.131E+00
  22.076  0.631E+00  0.131E+00
  22.086  0.631E+00  0.132E+00
  22.096  0.629E+00  0.132E+00
  22.106  0.628E+00  0.132E+00
  22.116  0.626E+00  0.132E+00
  22.126  0.624E+00  0.132E+00
  22.136  0.621E+00  0.131E+00
  22.146  0.618E+00  0.131E+00
  22.156  0.615E+00  0.130E+00
  22.166  0.612E+00  0.129E+00
  22.176  0.609E+00  0.129E+00
  22.186  0.606E+00  0.128E+00
  22.196  0.602E+00  0.127E+00
  22.206  0.600E+00  0.126E+00
  22.216  0.597E+00  0.125E+00
  22.226  0.595E+00  0.124E+00
  22.236  0.593E+00  0.124E+00
  22.246  0.592E+00  0.123E+00
  22.256  0.592E+00  0.123E+00
  22.266  0.592E+00  0.122E+00
  22.276  0.593E+00  0.122E+00
  22.286  0.595E+00  0.122E+00
  22.296  0.597E+00  0.122E+00
  22.306  0.600E+00  0.122E+00
  22.316  0.604E+00  0.122E+00
  22.326  0.608E+00  0.123E+00
  22.336  0.613E+00  0.123E+00
  22.346  0.618E+00  0.123E+00
  22.356  0.623E+00  0.124E+00
  22.366  0.628E+00  0.124E+00
  22.376  0.633E+00  0.125E+00
  22.386  0.637E+00  0.125E+00
  22.396  0.642E+00  0.125E+00
  22.406  0.646E+00  0.125E+00
  22.416  0.649E+00  0.125E+00
  22.426  0.652E+00  0.125E+00
  22.436  0.653E+00  0.125E+00
  22.446  0.655E+00  0.125E+00
  22.456  0.655E+00  0.125E+00
  22.466  0.655E+00  0.124E+00
  22.476  0.653E+00  0.123E+00
  22.486  0.651E+00  0.123E+00
  22.496  0.649E+00  0.122E+00
  22.506  0.645E+00  0.121E+00
  22.516  0.641E+00  0.120E+00
  22.526  0.637E+00  0.118E+00
  22.536  0.633E+00  0.117E+00
  22.546  0.628E+00  0.116E+00
  22.556  0.624E+00  0.115E+00
  22.566  0.619E+00  0.113E+00
  22.576  0.615E+00  0.112E+00
  22.586  0.611E+00  0.111E+00
  22.596  0.608E+00  0.110E+00
  22.606  0.606E+00  0.110E+00
  22.616  0.604E+00  0.109E+00
  22.626  0.603E+00  0.109E+00
  22.636  0.603E+00  0.109E+00
  22.646  0.604E+00  0.109E+00
  22.656  0.606E+00  0.109E+00
  22.666  0.608E+00  0.109E+00
  22.676  0.612E+00  0.109E+00
  22.686  0.616E+00  0.110E+00
  22.696  0.620E+00  0.110E+00
  22.706  0.625E+00  0.111E+00
  22.716  0.631E+00  0.112E+00
  22.726  0.636E+00  0.112E+00
  22.736  0.641E+00  0.113E+00
  22.746  0.647E+00  0.113E+00
  22.756  0.652E+00  0.113E+00
  22.766  0.656E+00  0.114E+00
  22.776  0.661E+00  0.114E+00
  22.786  0.664E+00  0.114E+00
  22.796  0.667E+00  0.113E+00
  22.806  0.670E+00  0.113E+00
  22.816  0.672E+00  0.113E+00
  22.826  0.673E+00  0.112E+00
  22.836  0.674E+00  0.111E+00
  22.846  0.674E+00  0.111E+00
  22.856  0.674E+00  0.110E+00
  22.866  0.673E+00  0.109E+00
  22.876  0.671E+00  0.108E+00
  22.886  0.670E+00  0.107E+00
  22.896  0.668E+00  0.106E+00
  22.906  0.665E+00  0.105E+00
  22.916  0.663E+00  0.104E+00
  22.926  0.660E+00  0.103E+00
  22.936  0.657E+00  0.102E+00
  22.946  0.653E+00  0.101E+00
  22.956  0.650E+00  0.100E+00
  22.966  0.646E+00  0.995E-01
  22.976  0.643E+00  0.986E-01
  22.986  0.639E+00  0.978E-01
  22.996  0.636E+00  0.970E-01
  23.006  0.633E+00  0.963E-01
  23.016  0.629E+00  0.956E-01
  23.026  0.626E+00  0.949E-01
  23.036  0.623E+00  0.943E-01
  23.046  0.621E+00  0.937E-01
  23.056  0.618E+00  0.931E-01
  23.066  0.616E+00  0.926E-01
  23.076  0.613E+00  0.921E-01
  23.086  0.611E+00  0.916E-01
  23.096  0.609E+00  0.911E-01
  23.106  0.608E+00  0.907E-01
  23.116  0.606E+00  0.902E-01
  23.126  0.604E+00  0.897E-01
  23.136  0.603E+00  0.892E-01
  23.146  0.602E+00  0.887E-01
  23.156  0.600E+00  0.881E-01
  23.166  0.599E+00  0.876E-01
  23.176  0.598E+00  0.871E-01
  23.186  0.597E+00  0.865E-01
  23.196  0.596E+00  0.859E-01
  23.206  0.595E+00  0.854E-01
  23.216  0.594E+00  0.848E-01
  23.226  0.592E+00  0.842E-01
  23.236  0.591E+00  0.837E-01
  23.246  0.590E+00  0.832E-01
  23.256  0.588E+00  0.827E-01
  23.266  0.586E+00  0.822E-01
  23.276  0.584E+00  0.817E-01
  23.286  0.582E+00  0.812E-01
  23.296  0.580E+00  0.807E-01
  23.306  0.577E+00  0.803E-01
  23.316  0.574E+00  0.799E-01
  23.326  0.570E+00  0.794E-01
  23.336  0.567E+00  0.790E-01
  23.346  0.563E+00  0.785E-01
  23.356  0.559E+00  0.780E-01
  23.366  0.554E+00  0.775E-01
  23.376  0.550E+00  0.770E-01
  23.386  0.545E+00  0.764E-01
  23.396  0.540E+00  0.758E-01
  23.406  0.535E+00  0.752E-01
  23.416  0.530E+00  0.745E-01
  23.426  0.525E+00  0.737E-01
  23.436  0.520E+00  0.729E-01
  23.446  0.515E+00  0.721E-01
  23.456  0.510E+00  0.712E-01
  23.466  0.505E+00  0.702E-01
  23.476  0.500E+00  0.692E-01
  23.486  0.495E+00  0.681E-01
  23.496  0.490E+00  0.670E-01
  23.506  0.484E+00  0.659E-01
  23.516  0.479E+00  0.647E-01
  23.526  0.474E+00  0.635E-01
  23.536  0.469E+00  0.623E-01
  23.546  0.464E+00  0.610E-01
  23.556  0.459E+00  0.597E-01
  23.566  0.454E+00  0.585E-01
  23.576  0.449E+00  0.572E-01
  23.586  0.444E+00  0.559E-01
  23.596  0.440E+00  0.547E-01
  23.606  0.436E+00  0.535E-01
  23.616  0.432E+00  0.523E-01
  23.626  0.429E+00  0.512E-01
  23.636  0.426E+00  0.501E-01
  23.646  0.423E+00  0.491E-01
  23.656  0.421E+00  0.482E-01
  23.666  0.419E+00  0.474E-01
  23.676  0.418E+00  0.467E-01
  23.686  0.418E+00  0.460E-01
  23.696  0.418E+00  0.455E-01
  23.706  0.419E+00  0.451E-01
  23.716  0.420E+00  0.448E-01
  23.726  0.421E+00  0.445E-01
  23.736  0.423E+00  0.444E-01
  23.746  0.425E+00  0.443E-01
  23.756  0.427E+00  0.442E-01
  23.766  0.429E+00  0.442E-01
  23.776  0.431E+00  0.441E-01
  23.786  0.432E+00  0.441E-01
  23.796  0.434E+00  0.440E-01
  23.806  0.435E+00  0.439E-01
  23.816  0.436E+00  0.438E-01
  23.826  0.436E+00  0.435E-01
  23.836  0.436E+00  0.433E-01
  23.846  0.435E+00  0.429E-01
  23.856  0.434E+00  0.424E-01
  23.866  0.432E+00  0.419E-01
  23.876  0.429E+00  0.413E-01
  23.886  0.425E+00  0.407E-01
  23.896  0.421E+00  0.399E-01
  23.906  0.417E+00  0.392E-01
  23.916  0.412E+00  0.384E-01
  23.926  0.406E+00  0.375E-01
  23.936  0.400E+00  0.366E-01
  23.946  0.394E+00  0.358E-01
  23.956  0.387E+00  0.349E-01
  23.966  0.381E+00  0.340E-01
  23.976  0.373E+00  0.332E-01
  23.986  0.366E+00  0.323E-01
  23.996  0.359E+00  0.315E-01
  24.006  0.351E+00  0.307E-01
  24.016  0.343E+00  0.300E-01
  24.026  0.336E+00  0.293E-01
  24.036  0.328E+00  0.286E-01
  24.046  0.321E+00  0.279E-01
  24.056  0.314E+00  0.273E-01
  24.066  0.307E+00  0.267E-01
  24.076  0.300E+00  0.261E-01
  24.086  0.293E+00  0.256E-01
  24.096  0.287E+00  0.251E-01
  24.106  0.280E+00  0.246E-01
  24.116  0.274E+00  0.241E-01
  24.126  0.269E+00  0.236E-01
  24.136  0.263E+00  0.232E-01
  24.146  0.258E+00  0.227E-01
  24.156  0.253E+00  0.223E-01
  24.166  0.248E+00  0.218E-01
  24.176  0.243E+00  0.214E-01
  24.186  0.239E+00  0.209E-01
  24.196  0.235E+00  0.205E-01
  24.206  0.231E+00  0.200E-01
  24.216  0.227E+00  0.195E-01
  24.226  0.223E+00  0.191E-01
  24.236  0.219E+00  0.186E-01
  24.246  0.215E+00  0.181E-01
  24.256  0.211E+00  0.176E-01
  24.266  0.208E+00  0.171E-01
  24.276  0.204E+00  0.166E-01
  24.286  0.200E+00  0.161E-01
  24.296  0.196E+00  0.156E-01
  24.306  0.193E+00  0.151E-01
  24.316  0.189E+00  0.146E-01
  24.326  0.186E+00  0.142E-01
  24.336  0.183E+00  0.137E-01
  24.346  0.180E+00  0.133E-01
  24.356  0.178E+00  0.130E-01
  24.366  0.176E+00  0.127E-01
  24.376  0.175E+00  0.124E-01
  24.386  0.174E+00  0.122E-01
  24.396  0.173E+00  0.120E-01
  24.406  0.174E+00  0.119E-01
  24.416  0.175E+00  0.118E-01
  24.426  0.176E+00  0.117E-01
  24.436  0.178E+00  0.117E-01
  24.446  0.181E+00  0.117E-01
  24.456  0.184E+00  0.118E-01
  24.466  0.188E+00  0.119E-01
  24.476  0.192E+00  0.120E-01
  24.486  0.196E+00  0.121E-01
  24.496  0.200E+00  0.122E-01
  24.506  0.205E+00  0.123E-01
  24.516  0.210E+00  0.124E-01
  24.526  0.215E+00  0.126E-01
  24.536  0.219E+00  0.127E-01
  24.546  0.224E+00  0.127E-01
  24.556  0.229E+00  0.128E-01
  24.566  0.233E+00  0.129E-01
  24.576  0.237E+00  0.129E-01
  24.586  0.240E+00  0.130E-01
  24.596  0.243E+00  0.130E-01
  24.606  0.246E+00  0.130E-01
  24.616  0.248E+00  0.129E-01
  24.626  0.249E+00  0.129E-01
  24.636  0.250E+00  0.128E-01
  24.646  0.250E+00  0.128E-01
  24.656  0.249E+00  0.127E-01
  24.666  0.248E+00  0.126E-01
  24.676  0.246E+00  0.124E-01
  24.686  0.244E+00  0.123E-01
  24.696  0.240E+00  0.121E-01
  24.706  0.236E+00  0.119E-01
  24.716  0.232E+00  0.117E-01
  24.726  0.227E+00  0.115E-01
  24.736  0.222E+00  0.113E-01
  24.746  0.216E+00  0.110E-01
  24.756  0.210E+00  0.108E-01
  24.766  0.203E+00  0.105E-01
  24.776  0.196E+00  0.102E-01
  24.786  0.190E+00  0.991E-02
  24.796  0.183E+00  0.960E-02
  24.806  0.176E+00  0.929E-02
  24.816  0.169E+00  0.897E-02
  24.826  0.162E+00  0.866E-02
  24.836  0.156E+00  0.835E-02
  24.846  0.150E+00  0.805E-02
  24.856  0.144E+00  0.775E-02
  24.866  0.139E+00  0.747E-02
  24.876  0.133E+00  0.720E-02
  24.886  0.129E+00  0.695E-02
  24.896  0.124E+00  0.672E-02
  24.906  0.120E+00  0.651E-02
  24.916  0.117E+00  0.631E-02
  24.926  0.113E+00  0.613E-02
  24.936  0.111E+00  0.597E-02
  24.946  0.108E+00  0.582E-02
  24.956  0.106E+00  0.569E-02
  24.966  0.103E+00  0.556E-02
  24.976  0.102E+00  0.544E-02
  24.986  0.997E-01  0.533E-02
  24.996  0.980E-01  0.522E-02
  25.006  0.963E-01  0.512E-02
  25.016  0.946E-01  0.501E-02
  25.026  0.930E-01  0.490E-02
  25.036  0.913E-01  0.479E-02
  25.046  0.897E-01  0.468E-02
  25.056  0.880E-01  0.457E-02
  25.066  0.864E-01  0.446E-02
  25.076  0.849E-01  0.435E-02
  25.086  0.834E-01  0.425E-02
  25.096  0.820E-01  0.415E-02
  25.106  0.807E-01  0.405E-02
  25.116  0.796E-01  0.397E-02
  25.126  0.787E-01  0.389E-02
  25.136  0.780E-01  0.382E-02
  25.146  0.775E-01  0.377E-02
  25.156  0.772E-01  0.372E-02
  25.166  0.772E-01  0.369E-02
  25.176  0.773E-01  0.367E-02
  25.186  0.776E-01  0.365E-02
  25.196  0.781E-01  0.365E-02
  25.206  0.787E-01  0.365E-02
  25.216  0.795E-01  0.366E-02
  25.226  0.804E-01  0.368E-02
  25.236  0.815E-01  0.370E-02
  25.246  0.826E-01  0.373E-02
  25.256  0.839E-01  0.375E-02
  25.266  0.854E-01  0.379E-02
  25.276  0.870E-01  0.383E-02
  25.286  0.888E-01  0.387E-02
  25.296  0.908E-01  0.392E-02
  25.306  0.931E-01  0.397E-02
  25.316  0.956E-01  0.404E-02
  25.326  0.985E-01  0.410E-02
  25.336  0.102E+00  0.418E-02
  25.346  0.105E+00  0.426E-02
  25.356  0.108E+00  0.435E-02
  25.366  0.112E+00  0.445E-02
  25.376  0.116E+00  0.455E-02
  25.386  0.120E+00  0.465E-02
  25.396  0.124E+00  0.475E-02
  25.406  0.128E+00  0.485E-02
  25.416  0.131E+00  0.494E-02
  25.426  0.135E+00  0.502E-02
  25.436  0.137E+00  0.510E-02
  25.446  0.140E+00  0.515E-02
  25.456  0.141E+00  0.519E-02
  25.466  0.142E+00  0.521E-02
  25.476  0.142E+00  0.521E-02
  25.486  0.142E+00  0.519E-02
  25.496  0.141E+00  0.515E-02
  25.506  0.138E+00  0.508E-02
  25.516  0.136E+00  0.499E-02
  25.526  0.132E+00  0.488E-02
  25.536  0.128E+00  0.476E-02
  25.546  0.123E+00  0.461E-02
  25.556  0.118E+00  0.446E-02
  25.566  0.113E+00  0.429E-02
  25.576  0.107E+00  0.412E-02
  25.586  0.102E+00  0.394E-02
  25.596  0.959E-01  0.376E-02
  25.606  0.903E-01  0.358E-02
  25.616  0.849E-01  0.340E-02
  25.626  0.798E-01  0.323E-02
  25.636  0.749E-01  0.307E-02
  25.646  0.704E-01  0.292E-02
  25.656  0.663E-01  0.278E-02
  25.666  0.626E-01  0.265E-02
  25.676  0.592E-01  0.253E-02
  25.686  0.562E-01  0.242E-02
  25.696  0.536E-01  0.232E-02
  25.706  0.513E-01  0.223E-02
  25.716  0.493E-01  0.215E-02
  25.726  0.476E-01  0.208E-02
  25.736  0.461E-01  0.201E-02
  25.746  0.449E-01  0.195E-02
  25.756  0.438E-01  0.190E-02
  25.766  0.428E-01  0.184E-02
  25.776  0.420E-01  0.180E-02
  25.786  0.412E-01  0.175E-02
  25.796  0.405E-01  0.171E-02
  25.806  0.399E-01  0.166E-02
  25.816  0.392E-01  0.162E-02
  25.826  0.387E-01  0.159E-02
  25.836  0.381E-01  0.155E-02
  25.846  0.376E-01  0.151E-02
  25.856  0.370E-01  0.148E-02
  25.866  0.366E-01  0.145E-02
  25.876  0.361E-01  0.142E-02
  25.886  0.357E-01  0.139E-02
  25.896  0.353E-01  0.137E-02
  25.906  0.350E-01  0.135E-02
  25.916  0.347E-01  0.132E-02
  25.926  0.345E-01  0.131E-02
  25.936  0.343E-01  0.129E-02
  25.946  0.342E-01  0.127E-02
  25.956  0.341E-01  0.125E-02
  25.966  0.340E-01  0.124E-02
  25.976  0.339E-01  0.122E-02
  25.986  0.338E-01  0.121E-02
  25.996  0.337E-01  0.119E-02
  26.006  0.336E-01  0.117E-02
  26.016  0.335E-01  0.116E-02
  26.026  0.334E-01  0.114E-02
  26.036  0.332E-01  0.113E-02
  26.046  0.331E-01  0.112E-02
  26.056  0.330E-01  0.110E-02
  26.066  0.330E-01  0.109E-02
  26.076  0.330E-01  0.109E-02
  26.086  0.331E-01  0.108E-02
  26.096  0.332E-01  0.108E-02
  26.106  0.336E-01  0.108E-02
  26.116  0.340E-01  0.109E-02
  26.126  0.346E-01  0.110E-02
  26.136  0.354E-01  0.112E-02
  26.146  0.364E-01  0.114E-02
  26.156  0.376E-01  0.117E-02
  26.166  0.389E-01  0.121E-02
  26.176  0.404E-01  0.124E-02
  26.186  0.420E-01  0.128E-02
  26.196  0.437E-01  0.133E-02
  26.206  0.456E-01  0.137E-02
  26.216  0.475E-01  0.142E-02
  26.226  0.494E-01  0.147E-02
  26.236  0.513E-01  0.151E-02
  26.246  0.531E-01  0.156E-02
  26.256  0.548E-01  0.160E-02
  26.266  0.563E-01  0.164E-02
  26.276  0.576E-01  0.167E-02
  26.286  0.587E-01  0.169E-02
  26.296  0.595E-01  0.172E-02
  26.306  0.600E-01  0.173E-02
  26.316  0.601E-01  0.173E-02
  26.326  0.599E-01  0.173E-02
  26.336  0.593E-01  0.172E-02
  26.346  0.584E-01  0.171E-02
  26.356  0.572E-01  0.168E-02
  26.366  0.556E-01  0.165E-02
  26.376  0.538E-01  0.161E-02
  26.386  0.517E-01  0.156E-02
  26.396  0.494E-01  0.151E-02
  26.406  0.469E-01  0.146E-02
  26.416  0.443E-01  0.140E-02
  26.426  0.416E-01  0.134E-02
  26.436  0.389E-01  0.127E-02
  26.446  0.362E-01  0.121E-02
  26.456  0.336E-01  0.114E-02
  26.466  0.309E-01  0.107E-02
  26.476  0.284E-01  0.101E-02
  26.486  0.260E-01  0.940E-03
  26.496  0.237E-01  0.875E-03
  26.506  0.215E-01  0.812E-03
  26.516  0.195E-01  0.750E-03
  26.526  0.176E-01  0.690E-03
  26.536  0.158E-01  0.632E-03
  26.546  0.142E-01  0.577E-03
  26.556  0.127E-01  0.524E-03
  26.566  0.113E-01  0.473E-03
  26.576  0.101E-01  0.425E-03
  26.586  0.892E-02  0.379E-03
  26.596  0.789E-02  0.337E-03
  26.606  0.696E-02  0.297E-03
  26.616  0.613E-02  0.261E-03
  26.626  0.541E-02  0.227E-03
  26.636  0.477E-02  0.196E-03
  26.646  0.423E-02  0.169E-03
  26.656  0.378E-02  0.144E-03
  26.666  0.342E-02  0.122E-03
  26.676  0.314E-02  0.103E-03
  26.686  0.294E-02  0.860E-04
  26.696  0.281E-02  0.719E-04
  26.706  0.276E-02  0.601E-04
  26.716  0.276E-02  0.505E-04
  26.726  0.283E-02  0.427E-04
  26.736  0.296E-02  0.368E-04
  26.746  0.313E-02  0.326E-04
  26.756  0.334E-02  0.298E-04
  26.766  0.360E-02  0.284E-04
  26.776  0.388E-02  0.283E-04
  26.786  0.419E-02  0.294E-04
  26.796  0.453E-02  0.317E-04
  26.806  0.488E-02  0.351E-04
  26.816  0.526E-02  0.397E-04
  26.826  0.564E-02  0.454E-04
  26.836  0.604E-02  0.523E-04
  26.846  0.646E-02  0.605E-04
  26.856  0.688E-02  0.699E-04
  26.866  0.732E-02  0.807E-04
  26.876  0.777E-02  0.929E-04
  26.886  0.824E-02  0.106E-03
  26.896  0.872E-02  0.121E-03
  26.906  0.921E-02  0.138E-03
  26.916  0.972E-02  0.155E-03
  26.926  0.102E-01  0.174E-03
  26.936  0.108E-01  0.194E-03
  26.946  0.113E-01  0.214E-03
  26.956  0.118E-01  0.236E-03
  26.966  0.123E-01  0.257E-03
  26.976  0.128E-01  0.278E-03
  26.986  0.133E-01  0.299E-03
  26.996  0.137E-01  0.319E-03
  27.006  0.140E-01  0.338E-03
  27.016  0.144E-01  0.355E-03
  27.026  0.146E-01  0.371E-03
  27.036  0.148E-01  0.384E-03
  27.046  0.148E-01  0.394E-03
  27.056  0.149E-01  0.402E-03
  27.066  0.148E-01  0.407E-03
  27.076  0.146E-01  0.409E-03
  27.086  0.143E-01  0.407E-03
  27.096  0.140E-01  0.403E-03
  27.106  0.136E-01  0.396E-03
  27.116  0.131E-01  0.385E-03
  27.126  0.125E-01  0.372E-03
  27.136  0.119E-01  0.357E-03
  27.146  0.113E-01  0.340E-03
  27.156  0.106E-01  0.321E-03
  27.166  0.989E-02  0.301E-03
  27.176  0.917E-02  0.280E-03
  27.186  0.845E-02  0.258E-03
  27.196  0.774E-02  0.236E-03
  27.206  0.703E-02  0.215E-03
  27.216  0.635E-02  0.193E-03
  27.226  0.569E-02  0.173E-03
  27.236  0.507E-02  0.153E-03
  27.246  0.448E-02  0.134E-03
  27.256  0.393E-02  0.117E-03
  27.266  0.343E-02  0.101E-03
  27.276  0.296E-02  0.864E-04
  27.286  0.254E-02  0.734E-04
  27.296  0.217E-02  0.617E-04
  27.306  0.183E-02  0.515E-04
  27.316  0.153E-02  0.425E-04
  27.326  0.128E-02  0.349E-04
  27.336  0.105E-02  0.283E-04
  27.346  0.860E-03  0.228E-04
  27.356  0.698E-03  0.181E-04
  27.366  0.561E-03  0.143E-04
  27.376  0.447E-03  0.112E-04
  27.386  0.353E-03  0.870E-05
  27.396  0.276E-03  0.668E-05
  27.406  0.214E-03  0.508E-05
  27.416  0.165E-03  0.383E-05
  27.426  0.125E-03  0.286E-05
  27.436  0.947E-04  0.212E-05
  27.446  0.707E-04  0.155E-05
  27.456  0.524E-04  0.113E-05
  27.466  0.384E-04  0.809E-06
  27.476  0.279E-04  0.576E-06
  27.486  0.201E-04  0.406E-06
  27.496  0.143E-04  0.284E-06
  27.506  0.101E-04  0.196E-06
  27.516  0.703E-05  0.134E-06
  27.526  0.486E-05  0.912E-07
  27.536  0.333E-05  0.613E-07
  27.546  0.225E-05  0.408E-07
  27.556  0.151E-05  0.269E-07
  27.566  0.100E-05  0.175E-07
  27.576  0.660E-06  0.113E-07
  27.586  0.429E-06  0.724E-08
  27.596  0.276E-06  0.459E-08
  27.606  0.176E-06  0.288E-08
